LabVIEW Measurement	
Writer_Version	2
Reader_Version	2
Separator	Tab
Decimal_Separator	.
Multi_Headings	No
X_Columns	No
Time_Pref	Absolute
Operator	mechlab
Description	Data file
Date	2024/02/09
Time	15:54:34.8039999008178710937
***End_of_Header***	
	
Channels	6						
Samples	1	1	1	1	1	1	
Date	2024/02/09	2024/02/09	2024/02/09	2024/02/09	2024/02/09	2024/02/09	
Time	15:54:34.8039999008178710937	15:54:34.909999847412109375	15:54:35.0180001258850097656	15:54:35.1279997825622558594	15:54:35.23600006103515625	15:54:35.3439998626708984375	
X_Dimension	Time	Time	Time	Time	Time	Time	
X0	0.0000000000000000E+0	0.0000000000000000E+0	0.0000000000000000E+0	0.0000000000000000E+0	0.0000000000000000E+0	0.0000000000000000E+0	
Delta_X	1.000000	1.000000	1.000000	1.000000	1.000000	1.000000	
***End_of_Header***							
X_Value	Untitled	Untitled 1	Untitled 2	Untitled 3	Untitled 4	Untitled 5	Comment
	0.000000	83.395854	-38.072482	22.083761	-1.757566E-5	1.986610E-5
	0.545000	113.156051	-38.062431	22.080877	-2.155105E-5	3.118740E-5
	1.087000	159.991771	-38.065610	22.076905	-2.548497E-5	4.048911E-5
	1.629000	186.610587	-38.064280	22.082180	-2.922996E-5	5.111523E-5
	2.170000	217.686268	-38.063179	22.078887	-3.227541E-5	5.880361E-5
	2.718000	249.037282	-38.068788	22.086604	-3.630430E-5	6.914937E-5
	3.259000	279.084084	-38.063014	22.080289	-4.040140E-5	7.725173E-5
	3.803000	303.002697	-38.052729	22.080003	-4.373194E-5	8.560765E-5
	4.343000	331.674441	-38.044733	22.084339	-4.652139E-5	9.517130E-5
	4.884000	359.940429	-38.053418	22.081586	-4.929985E-5	0.000103
	5.426000	383.392102	-38.038714	22.081832	-5.218554E-5	0.000111
	5.972000	408.835517	-38.059308	22.084997	-5.486039E-5	0.000118
	6.513000	426.991443	-38.047624	22.086261	-5.749622E-5	0.000125
	7.052000	446.546580	-38.045560	22.084292	-6.024660E-5	0.000133
	7.594000	471.550427	-38.034959	22.082484	-6.281539E-5	0.000138
	8.137000	492.189187	-38.039200	22.085939	-6.472491E-5	0.000146
	8.678000	516.313899	-38.045486	22.085593	-6.699390E-5	0.000152
	9.220000	539.330834	-38.049582	22.084701	-6.945298E-5	0.000158
	9.761000	552.469568	-38.038607	22.088152	-7.144046E-5	0.000163
	10.303000	570.063556	-38.038843	22.085806	-7.331096E-5	0.000169
	10.855000	583.942953	-38.043222	22.085732	-7.524603E-5	0.000174
	11.396000	587.176112	-38.032363	22.093375	-7.680090E-5	0.000178
	11.937000	607.925972	-38.029529	22.086310	-7.896748E-5	0.000184
	12.485000	628.426261	-38.021746	22.088532	-8.071731E-5	0.000190
	13.024000	644.381127	-38.020477	22.083745	-8.208451E-5	0.000195
	13.567000	656.420136	-38.029636	22.088237	-8.340540E-5	0.000199
	14.117000	671.420190	-38.027935	22.086669	-8.539892E-5	0.000204
	14.660000	676.554923	-38.020409	22.089462	-8.656018E-5	0.000208
	15.202000	687.882250	-38.028492	22.086261	-8.811380E-5	0.000211
	15.747000	705.122008	-38.022348	22.086959	-8.949072E-5	0.000215
	16.288000	708.780243	-38.027439	22.088429	-9.050819E-5	0.000218
	16.834000	725.412978	-38.016874	22.085606	-9.194116E-5	0.000222
	17.377000	731.879296	-38.015653	22.088493	-9.335220E-5	0.000224
	17.921000	735.342705	-38.011128	22.089929	-9.375796E-5	0.000227
	18.464000	748.811517	-38.007110	22.089491	-9.555403E-5	0.000231
	19.007000	753.289313	-38.002360	22.086459	-9.703086E-5	0.000234
	19.549000	759.259709	-38.012887	22.085516	-9.903407E-5	0.000236
	20.093000	770.282720	-37.999039	22.091103	-9.978954E-5	0.000239
	20.639000	784.674141	-37.988087	22.084347	-0.000101	0.000243
	21.179000	787.923402	-37.999729	22.088508	-0.000102	0.000246
	21.722000	801.041204	-37.999387	22.090894	-0.000103	0.000249
	22.262000	809.528246	-37.990264	22.086963	-0.000104	0.000252
	22.803000	822.510796	-38.003136	22.089854	-0.000105	0.000255
	23.348000	827.341213	-37.976880	22.086432	-0.000106	0.000258
	23.894000	823.906786	-38.003583	22.089062	-0.000107	0.000261
	24.434000	843.455483	-37.985688	22.087067	-0.000108	0.000263
	24.977000	843.453873	-37.979724	22.088691	-0.000108	0.000266
	25.518000	858.565027	-37.987900	22.090937	-0.000110	0.000269
	26.065000	863.327818	-37.973396	22.085836	-0.000111	0.000272
	26.607000	867.926375	-37.975396	22.088746	-0.000112	0.000273
	27.147000	868.528567	-37.978565	22.080231	-0.000113	0.000277
	27.692000	872.397731	-37.969129	22.089838	-0.000114	0.000280
	28.243000	886.818135	-37.970858	22.086308	-0.000115	0.000284
	28.789000	896.177873	-37.970491	22.091828	-0.000116	0.000285
	29.332000	900.137204	-37.973515	22.089756	-0.000116	0.000287
	29.872000	907.466557	-37.968079	22.088975	-0.000118	0.000291
	30.414000	910.361586	-37.970649	22.089082	-0.000118	0.000293
	30.956000	915.504370	-37.968588	22.089504	-0.000119	0.000295
	31.500000	925.978324	-37.963268	22.091638	-0.000121	0.000297
	32.043000	933.481571	-37.961880	22.087355	-0.000121	0.000299
	32.588000	938.052756	-37.943279	22.087817	-0.000123	0.000302
	33.131000	949.594232	-37.964910	22.091680	-0.000124	0.000304
	33.673000	948.860009	-37.944394	22.090131	-0.000125	0.000307
	34.216000	954.336091	-37.949958	22.086667	-0.000126	0.000309
	34.758000	960.804019	-37.960028	22.090775	-0.000126	0.000311
	35.301000	971.567798	-37.959890	22.090615	-0.000128	0.000315
	35.845000	971.839912	-37.946526	22.088010	-0.000128	0.000316
	36.387000	978.399618	-37.946429	22.088397	-0.000129	0.000318
	36.928000	984.770937	-37.951179	22.086068	-0.000130	0.000321
	37.485000	983.648671	-37.945405	22.090324	-0.000130	0.000323
	38.026000	993.763563	-37.950023	22.084806	-0.000131	0.000325
	38.571000	1008.771669	-37.945849	22.085957	-0.000132	0.000327
	39.117000	1013.927333	-37.934037	22.091034	-0.000133	0.000330
	39.657000	1017.456758	-37.927722	22.088878	-0.000134	0.000332
	40.200000	1020.744662	-37.937879	22.090269	-0.000137	0.000335
	40.743000	1029.658391	-37.927944	22.090904	-0.000139	0.000337
	41.283000	1031.899704	-37.935718	22.089810	-0.000140	0.000340
	41.824000	1040.270817	-37.924054	22.090718	-0.000141	0.000341
	42.367000	1034.731939	-37.935422	22.083391	-0.000142	0.000344
	42.907000	1047.448816	-37.928643	22.088786	-0.000142	0.000347
	43.452000	1053.731579	-37.942890	22.086313	-0.000143	0.000349
	43.993000	1064.397139	-37.923977	22.085400	-0.000144	0.000350
	44.536000	1065.920331	-37.920692	22.090751	-0.000145	0.000353
	45.080000	1070.362704	-37.920682	22.085376	-0.000146	0.000354
	45.632000	1081.149025	-37.921269	22.088277	-0.000147	0.000357
	46.176000	1081.675540	-37.924891	22.090076	-0.000148	0.000360
	46.720000	1086.473754	-37.915601	22.087120	-0.000149	0.000364
	47.263000	1085.660634	-37.917298	22.083328	-0.000150	0.000366
	47.808000	1097.606255	-37.910899	22.088029	-0.000151	0.000369
	48.355000	1095.542057	-37.912007	22.091036	-0.000152	0.000371
	48.900000	1103.249792	-37.909521	22.086054	-0.000153	0.000374
	49.444000	1111.783529	-37.904156	22.093961	-0.000154	0.000377
	49.983000	1115.533542	-37.899100	22.089012	-0.000155	0.000378
	50.530000	1116.696063	-37.901666	22.089213	-0.000153	0.000369
	51.075000	1076.771057	-37.914049	22.089807	-0.000149	0.000356
	51.620000	1036.807408	-37.904578	22.087976	-0.000145	0.000343
	52.163000	999.822516	-37.899544	22.090005	-0.000141	0.000331
	52.713000	958.507961	-37.910461	22.086951	-0.000137	0.000320
	53.256000	924.854447	-37.890357	22.089871	-0.000133	0.000308
	53.800000	892.080069	-37.896852	22.088223	-0.000129	0.000298
	54.342000	855.888976	-37.913968	22.089026	-0.000125	0.000285
	54.885000	820.960232	-37.916779	22.084389	-0.000122	0.000275
	55.426000	782.473082	-37.924560	22.085468	-0.000118	0.000264
	55.969000	744.066438	-37.909617	22.086656	-0.000115	0.000254
	56.514000	713.142110	-37.913066	22.087028	-0.000111	0.000243
	57.055000	681.729909	-37.919736	22.083320	-0.000108	0.000233
	57.597000	650.681601	-37.918229	22.087746	-0.000104	0.000224
	58.140000	616.723771	-37.927036	22.085474	-0.000101	0.000213
	58.683000	583.965495	-37.929026	22.080603	-9.740250E-5	0.000204
	59.221000	548.547269	-37.928347	22.090949	-9.368972E-5	0.000193
	59.767000	524.776789	-37.926041	22.084312	-8.997448E-5	0.000184
	60.314000	492.947563	-37.928418	22.082779	-8.624702E-5	0.000174
	60.856000	465.745876	-37.931271	22.085379	-8.266575E-5	0.000164
	61.399000	419.145236	-37.949640	22.083255	-7.906009E-5	0.000156
	61.940000	398.396986	-37.944304	22.085363	-7.547146E-5	0.000145
	62.494000	370.436924	-37.942230	22.079534	-7.277479E-5	0.000136
	63.035000	339.436920	-37.939016	22.081579	-7.007445E-5	0.000128
	63.577000	307.575492	-37.933512	22.082110	-6.684889E-5	0.000117
	64.116000	275.701182	-37.952348	22.083370	-6.704264E-5	0.000121
	64.662000	308.752503	-37.953398	22.081460	-7.054847E-5	0.000132
	65.203000	335.931648	-37.954531	22.083664	-7.458679E-5	0.000143
	65.746000	371.167927	-37.938436	22.083964	-7.904547E-5	0.000154
	66.287000	410.474638	-37.950470	22.083202	-8.311052E-5	0.000165
	66.827000	439.643915	-37.933718	22.079623	-8.731201E-5	0.000177
	67.368000	479.638155	-37.932820	22.081553	-9.101509E-5	0.000187
	67.914000	510.506128	-37.927635	22.083258	-9.468402E-5	0.000197
	68.464000	550.745109	-37.934478	22.081996	-9.838583E-5	0.000207
	69.003000	577.690784	-37.928714	22.082564	-0.000102	0.000218
	69.547000	611.336246	-37.930862	22.084696	-0.000106	0.000227
	70.096000	648.464439	-37.926318	22.081170	-0.000110	0.000237
	70.636000	677.926761	-37.927358	22.083273	-0.000113	0.000247
	71.179000	712.623645	-37.923404	22.083845	-0.000117	0.000257
	71.727000	730.752199	-37.935918	22.083341	-0.000120	0.000267
	72.267000	766.225170	-37.920170	22.089543	-0.000124	0.000275
	72.809000	798.867516	-37.912880	22.085233	-0.000127	0.000286
	73.355000	828.495682	-37.922908	22.087376	-0.000131	0.000295
	73.889000	854.573493	-37.904961	22.087168	-0.000134	0.000305
	74.445000	888.824368	-37.905151	22.089020	-0.000137	0.000313
	74.986000	915.976141	-37.917037	22.087715	-0.000140	0.000324
	75.531000	952.397484	-37.899921	22.082994	-0.000144	0.000333
	76.074000	972.034738	-37.909305	22.088727	-0.000146	0.000340
	76.619000	993.475349	-37.902642	22.081748	-0.000149	0.000348
	77.161000	1012.228637	-37.907044	22.087221	-0.000150	0.000352
	77.707000	1028.246299	-37.890070	22.088522	-0.000152	0.000356
	78.246000	1048.276428	-37.907289	22.089274	-0.000154	0.000360
	78.786000	1065.690081	-37.891484	22.085368	-0.000156	0.000364
	79.330000	1080.630560	-37.894205	22.098582	-0.000158	0.000369
	79.872000	1087.612123	-37.895158	22.092029	-0.000159	0.000373
	80.417000	1095.670868	-37.899747	22.090150	-0.000161	0.000377
	80.958000	1109.914157	-37.881955	22.091435	-0.000162	0.000380
	81.500000	1120.764884	-37.890305	22.085284	-0.000164	0.000384
	82.041000	1127.976696	-37.891545	22.087780	-0.000165	0.000388
	82.586000	1140.754759	-37.879466	22.087538	-0.000166	0.000391
	83.126000	1146.931252	-37.873785	22.091377	-0.000168	0.000394
	83.668000	1159.852617	-37.877717	22.090976	-0.000169	0.000397
	84.212000	1163.171114	-37.868896	22.086717	-0.000170	0.000401
	84.768000	1172.732119	-37.865483	22.091073	-0.000171	0.000403
	85.333000	1169.355658	-37.870851	22.088944	-0.000172	0.000406
	85.881000	1185.316965	-37.865934	22.089957	-0.000174	0.000408
	86.424000	1188.144369	-37.858981	22.093227	-0.000174	0.000412
	86.965000	1191.169820	-37.869531	22.088488	-0.000175	0.000415
	87.507000	1199.643982	-37.874561	22.086479	-0.000176	0.000418
	88.047000	1201.358780	-37.870957	22.090076	-0.000178	0.000420
	88.588000	1214.357432	-37.863786	22.087543	-0.000179	0.000423
	89.136000	1217.312037	-37.854869	22.089152	-0.000181	0.000432
	89.678000	1235.189410	-37.861841	22.090005	-0.000188	0.000446
	90.219000	1253.068393	-37.843871	22.091857	-0.000193	0.000455
	90.759000	1264.347417	-37.857442	22.092696	-0.000198	0.000465
	91.302000	1284.266446	-37.841298	22.095209	-0.000203	0.000476
	91.844000	1293.209158	-37.845517	22.092879	-0.000208	0.000486
	92.388000	1310.213836	-37.830729	22.092047	-0.000213	0.000497
	92.927000	1319.865009	-37.821609	22.090490	-0.000217	0.000507
	93.472000	1335.939027	-37.831019	22.090123	-0.000222	0.000518
	94.014000	1347.681771	-37.815098	22.089983	-0.000228	0.000527
	94.558000	1358.337671	-37.807102	22.094581	-0.000234	0.000542
	95.101000	1369.212549	-37.802687	22.092324	-0.000239	0.000554
	95.643000	1378.942619	-37.816193	22.084159	-0.000244	0.000567
	96.186000	1388.076938	-37.810267	22.090799	-0.000251	0.000580
	96.730000	1397.013209	-37.802848	22.091102	-0.000257	0.000595
	97.273000	1408.121558	-37.793963	22.094354	-0.000264	0.000611
	97.815000	1423.633638	-37.792060	22.089768	-0.000271	0.000625
	98.356000	1430.264190	-37.779958	22.092016	-0.000278	0.000641
	98.897000	1440.189087	-37.765334	22.091316	-0.000286	0.000659
	99.450000	1454.506443	-37.774093	22.085313	-0.000293	0.000675
	99.993000	1460.602429	-37.770409	22.089330	-0.000300	0.000692
	100.539000	1469.583785	-37.768690	22.086469	-0.000308	0.000706
	101.083000	1480.310531	-37.766835	22.086443	-0.000315	0.000724
	101.626000	1487.779966	-37.749516	22.088178	-0.000324	0.000741
	102.170000	1501.712499	-37.749877	22.090855	-0.000333	0.000761
	102.715000	1512.255689	-37.754594	22.085703	-0.000343	0.000780
	103.260000	1516.471033	-37.754330	22.090147	-0.000352	0.000799
	103.802000	1525.396034	-37.739845	22.089353	-0.000362	0.000817
	104.345000	1540.673033	-37.729682	22.089691	-0.000372	0.000837
	104.886000	1542.959431	-37.728371	22.090187	-0.000383	0.000858
	105.429000	1544.712872	-37.732126	22.091763	-0.000394	0.000880
	105.970000	1565.734847	-37.716105	22.092639	-0.000405	0.000901
	106.512000	1568.892330	-37.712894	22.089799	-0.000417	0.000922
	107.058000	1578.062072	-37.718272	22.089462	-0.000430	0.000946
	107.602000	1579.942714	-37.705530	22.092142	-0.000444	0.000971
	108.143000	1595.198782	-37.709159	22.090219	-0.000458	0.000998
	108.698000	1601.570102	-37.703858	22.092868	-0.000473	0.001023
	109.241000	1607.146013	-37.707603	22.091076	-0.000489	0.001050
	109.780000	1615.628226	-37.688710	22.093177	-0.000504	0.001078
	110.326000	1629.336950	-37.681203	22.095198	-0.000521	0.001108
	110.865000	1632.056474	-37.672824	22.094762	-0.000538	0.001134
	111.404000	1639.926834	-37.680762	22.092329	-0.000556	0.001165
	111.946000	1642.329162	-37.673036	22.097074	-0.000573	0.001195
	112.491000	1651.542377	-37.674824	22.093861	-0.000592	0.001227
	113.030000	1661.286939	-37.667353	22.094122	-0.000612	0.001262
	113.575000	1662.972755	-37.645908	22.096924	-0.000633	0.001295
	114.116000	1675.383706	-37.657366	22.102300	-0.000654	0.001330
	114.662000	1676.172675	-37.641039	22.097987	-0.000676	0.001365
	115.209000	1687.177975	-37.643152	22.102701	-0.000697	0.001399
	115.750000	1695.351041	-37.627669	22.101270	-0.000719	0.001434
	116.297000	1704.292143	-37.630219	22.099539	-0.000741	0.001473
	116.840000	1705.056959	-37.630428	22.099524	-0.000765	0.001508
	117.388000	1720.591581	-37.630631	22.100399	-0.000786	0.001543
	117.927000	1725.447760	-37.613103	22.105274	-0.000810	0.001581
	118.473000	1728.679309	-37.619805	22.103527	-0.000833	0.001620
	119.013000	1732.058991	-37.608659	22.100872	-0.000858	0.001656
	119.554000	1741.845417	-37.613064	22.107429	-0.000881	0.001699
	120.099000	1743.267169	-37.603935	22.101896	-0.000907	0.001737
	120.645000	1751.317865	-37.602962	22.110309	-0.000932	0.001774
	121.190000	1753.752395	-37.610408	22.106612	-0.000956	0.001813
	121.733000	1765.622340	-37.592667	22.106830	-0.000979	0.001848
	122.276000	1771.537991	-37.581016	22.104497	-0.001005	0.001888
	122.818000	1775.969094	-37.568460	22.108723	-0.001028	0.001926
	123.361000	1781.519244	-37.585759	22.107780	-0.001055	0.001967
	123.901000	1789.697140	-37.578501	22.104593	-0.001082	0.002010
	124.443000	1791.023895	-37.564908	22.108978	-0.001108	0.002052
	124.987000	1796.425911	-37.567964	22.106120	-0.001135	0.002091
	125.538000	1802.961466	-37.553907	22.104614	-0.001160	0.002131
	126.081000	1810.260226	-37.545802	22.107311	-0.001186	0.002174
	126.625000	1814.697770	-37.549775	22.110449	-0.001212	0.002213
	127.170000	1813.087631	-37.533365	22.106007	-0.001237	0.002253
	127.715000	1822.988376	-37.543541	22.105744	-0.001263	0.002292
	128.258000	1825.609682	-37.534131	22.110037	-0.001288	0.002332
	128.799000	1837.325054	-37.523385	22.107612	-0.001315	0.002374
	129.343000	1837.948178	-37.538456	22.108963	-0.001343	0.002417
	129.889000	1845.770234	-37.535261	22.109643	-0.001370	0.002458
	130.431000	1849.103222	-37.516889	22.111280	-0.001396	0.002498
	130.973000	1850.896917	-37.513985	22.107161	-0.001424	0.002542
	131.516000	1861.274263	-37.501319	22.110451	-0.001449	0.002584
	132.060000	1866.729414	-37.509988	22.110171	-0.001477	0.002625
	132.603000	1864.771485	-37.496453	22.114549	-0.001503	0.002665
	133.146000	1867.114238	-37.493243	22.115383	-0.001529	0.002703
	133.689000	1881.727860	-37.485305	22.114303	-0.001555	0.002744
	134.234000	1885.759649	-37.491990	22.118961	-0.001582	0.002789
	134.785000	1886.142862	-37.478751	22.115884	-0.001610	0.002832
	135.327000	1893.658991	-37.465287	22.119577	-0.001637	0.002873
	135.871000	1900.687248	-37.466205	22.120336	-0.001667	0.002920
	136.427000	1901.841718	-37.475183	22.116080	-0.001693	0.002961
	136.967000	1903.862443	-37.459101	22.115900	-0.001721	0.003007
	137.510000	1911.410775	-37.463397	22.117441	-0.001748	0.003048
	138.050000	1917.575998	-37.444387	22.124918	-0.001774	0.003089
	138.591000	1916.086619	-37.456486	22.122368	-0.001799	0.003130
	139.132000	1927.523437	-37.437032	22.124084	-0.001827	0.003173
	139.675000	1930.899899	-37.449163	22.128942	-0.001855	0.003219
	140.219000	1925.744233	-37.432617	22.135597	-0.001882	0.003263
	140.761000	1937.986121	-37.425246	22.133736	-0.001910	0.003307
	141.302000	1937.039359	-37.426949	22.134814	-0.001937	0.003349
	141.842000	1951.340615	-37.426766	22.137484	-0.001965	0.003393
	142.385000	1948.783714	-37.417349	22.136648	-0.001991	0.003435
	142.927000	1951.580526	-37.410387	22.138883	-0.002020	0.003478
	143.472000	1964.041392	-37.414937	22.139489	-0.002047	0.003521
	144.016000	1960.247904	-37.409041	22.141217	-0.002074	0.003567
	144.559000	1963.018954	-37.408094	22.135011	-0.002102	0.003610
	145.097000	1972.750635	-37.391493	22.144516	-0.002130	0.003655
	145.642000	1965.904323	-37.390936	22.142009	-0.002159	0.003700
	146.185000	1978.115618	-37.389291	22.143906	-0.002188	0.003744
	146.728000	1983.828392	-37.379317	22.142968	-0.002214	0.003789
	147.276000	1982.118424	-37.376274	22.150351	-0.002244	0.003833
	147.820000	1986.019791	-37.361209	22.148069	-0.002272	0.003878
	148.363000	1989.748874	-37.368204	22.149063	-0.002300	0.003921
	148.906000	1993.589055	-37.377942	22.151132	-0.002327	0.003964
	149.450000	2001.422382	-37.354260	22.151164	-0.002353	0.004005
	149.989000	1998.733450	-37.363750	22.153333	-0.002380	0.004047
	150.535000	2013.140975	-37.349133	22.154357	-0.002409	0.004092
	151.075000	2015.731689	-37.346248	22.156739	-0.002437	0.004137
	151.618000	2017.269372	-37.337846	22.159250	-0.002467	0.004182
	152.163000	2016.876498	-37.336294	22.155206	-0.002495	0.004227
	152.713000	2025.891667	-37.339743	22.158006	-0.002523	0.004270
	153.253000	2027.265116	-37.324401	22.159154	-0.002552	0.004316
	153.797000	2030.833184	-37.316547	22.156148	-0.002581	0.004361
	154.343000	2029.305162	-37.310734	22.156520	-0.002607	0.004402
	154.882000	2037.756782	-37.309746	22.160039	-0.002635	0.004447
	155.423000	2040.806386	-37.308428	22.160283	-0.002661	0.004489
	155.970000	2042.041362	-37.299769	22.161413	-0.002691	0.004536
	156.515000	2045.298674	-37.292952	22.164939	-0.002719	0.004580
	157.059000	2053.217338	-37.299798	22.163981	-0.002747	0.004623
	157.605000	2056.518123	-37.291035	22.165091	-0.002776	0.004670
	158.145000	2061.628705	-37.277739	22.165237	-0.002804	0.004717
	158.688000	2064.328908	-37.287451	22.171038	-0.002833	0.004765
	159.230000	2065.219315	-37.264146	22.168874	-0.002861	0.004810
	159.772000	2064.649326	-37.258897	22.168833	-0.002889	0.004853
	160.317000	2073.769154	-37.266529	22.172843	-0.002918	0.004900
	160.865000	2069.927362	-37.253467	22.173612	-0.002945	0.004947
	161.406000	2080.580043	-37.256465	22.168746	-0.002973	0.004993
	161.948000	2074.458294	-37.261483	22.177096	-0.003001	0.005040
	162.494000	2081.633074	-37.252917	22.176433	-0.003030	0.005084
	163.034000	2082.072642	-37.241977	22.176408	-0.003057	0.005130
	163.576000	2093.808946	-37.235115	22.180563	-0.003086	0.005176
	164.124000	2095.237140	-37.233356	22.180089	-0.003113	0.005222
	164.663000	2097.014733	-37.234190	22.180717	-0.003141	0.005266
	165.207000	2103.410206	-37.229785	22.178769	-0.003168	0.005312
	165.753000	2099.471806	-37.224642	22.185073	-0.003196	0.005357
	166.297000	2109.998896	-37.218408	22.185340	-0.003225	0.005402
	166.840000	2119.922183	-37.206805	22.180464	-0.003253	0.005450
	167.386000	2114.867956	-37.211626	22.187475	-0.003282	0.005497
	167.927000	2114.331780	-37.219486	22.188539	-0.003309	0.005544
	168.470000	2123.588470	-37.211336	22.192715	-0.003338	0.005590
	169.013000	2123.728552	-37.202138	22.190562	-0.003366	0.005636
	169.554000	2120.490562	-37.191753	22.196152	-0.003395	0.005682
	170.097000	2118.711359	-37.181709	22.191739	-0.003422	0.005728
	170.641000	2132.465167	-37.181667	22.192579	-0.003450	0.005773
	171.187000	2133.746838	-37.174473	22.195486	-0.003478	0.005819
	171.730000	2129.840641	-37.167855	22.196832	-0.003506	0.005865
	172.271000	2138.591747	-37.172801	22.194803	-0.003534	0.005912
	172.814000	2147.998180	-37.166171	22.197988	-0.003564	0.005959
	173.360000	2146.518462	-37.159018	22.202632	-0.003592	0.006006
	173.901000	2148.498933	-37.162017	22.200374	-0.003620	0.006053
	174.443000	2151.559808	-37.148469	22.203464	-0.003648	0.006100
	174.987000	2147.775981	-37.143352	22.206150	-0.003676	0.006145
	175.531000	2154.875084	-37.141751	22.208026	-0.003703	0.006189
	176.070000	2159.077548	-37.139085	22.210496	-0.003731	0.006236
	176.616000	2163.424923	-37.137851	22.208939	-0.003758	0.006283
	177.159000	2164.746848	-37.129733	22.212302	-0.003788	0.006332
	177.702000	2166.849689	-37.118800	22.208248	-0.003816	0.006378
	178.246000	2170.195559	-37.127839	22.210893	-0.003844	0.006425
	178.787000	2173.459311	-37.114887	22.215527	-0.003872	0.006471
	179.332000	2174.314295	-37.099903	22.216932	-0.003900	0.006518
	179.875000	2178.085241	-37.111960	22.215273	-0.003928	0.006566
	180.416000	2179.081917	-37.097600	22.213914	-0.003956	0.006611
	180.961000	2183.649882	-37.083879	22.216487	-0.003984	0.006658
	181.502000	2183.250567	-37.096927	22.216651	-0.004011	0.006706
	182.046000	2192.830895	-37.079048	22.220775	-0.004040	0.006752
	182.591000	2192.301159	-37.090313	22.218109	-0.004069	0.006802
	183.140000	2201.259974	-37.081322	22.224065	-0.004097	0.006852
	183.681000	2200.366347	-37.066998	22.227264	-0.004125	0.006897
	184.224000	2196.113969	-37.055736	22.227082	-0.004154	0.006947
	184.775000	2203.604337	-37.068930	22.227069	-0.004182	0.006992
	185.319000	2204.496354	-37.062096	22.228150	-0.004209	0.007039
	185.864000	2213.643554	-37.051102	22.230500	-0.004238	0.007088
	186.406000	2214.471166	-37.061787	22.233560	-0.004265	0.007135
	186.946000	2212.543829	-37.047161	22.229998	-0.004293	0.007185
	187.490000	2212.007653	-37.034550	22.232790	-0.004347	0.007315
	188.030000	2231.591776	-37.018983	22.230943	-0.004491	0.007559
	188.577000	2235.510855	-36.984615	22.236130	-0.004667	0.007876
	189.119000	2244.158912	-36.976143	22.238078	-0.004856	0.008182
	189.662000	2261.947730	-36.947769	22.244971	-0.004989	0.008411
	190.207000	2272.953032	-36.928369	22.246779	-0.005113	0.008633
	190.751000	2283.541307	-36.904742	22.253780	-0.005264	0.008908
	191.294000	2301.935538	-36.886702	22.255223	-0.005436	0.009198
	191.835000	2313.890821	-36.865908	22.262705	-0.005587	0.009459
	192.387000	2324.091053	-36.836059	22.269502	-0.005711	0.009676
	192.929000	2340.796248	-36.818611	22.272320	-0.005839	0.009908
	193.474000	2350.170478	-36.803753	22.285612	-0.005992	0.010176
	194.020000	2363.975812	-36.772290	22.288761	-0.006151	0.010457
	194.562000	2377.315815	-36.748205	22.294819	-0.006300	0.010720
	195.103000	2377.385051	-36.717174	22.307876	-0.006444	0.010940
	195.645000	2396.262324	-36.712118	22.308028	-0.006583	0.011171
	196.187000	2398.949646	-36.688491	22.316405	-0.006715	0.011400
	196.730000	2407.997019	-36.659978	22.322056	-0.006028	0.007940
	197.278000	2422.006841	-36.646498	22.331217	-0.005928	0.007753
	197.819000	2427.597244	-36.612401	22.337707	-0.005201	0.007191
	198.364000	2440.241668	-36.592741	22.344364	-0.005184	0.007179
	198.903000	2447.472803	-36.561810	22.350956	-0.005182	0.007188
	199.445000	2459.825791	-36.554049	22.355295	-0.005197	0.007225
	199.994000	2478.905942	-36.518638	22.364297	-0.005263	0.007256
	200.537000	2473.930611	-36.494499	22.372841	-0.005332	0.007323
	201.076000	2490.898259	-36.471493	22.383850	-0.005330	0.007190
	201.619000	2492.732208	-36.468543	22.393065	-0.005139	0.007009
	202.161000	2502.091947	-36.438256	22.403033	-0.005065	0.006928
	202.703000	2508.170223	-36.407373	22.406033	-0.005023	0.006918
	203.242000	2512.424211	-36.388879	22.411091	-0.005019	0.006934
	203.780000	2519.122390	-36.357339	22.419249	-0.004993	0.003874
	204.325000	2519.247981	-36.345620	22.429870	-0.002233	0.002446
	204.867000	2544.395136	-36.314573	22.437570	-0.002174	0.002463
	205.410000	2545.156732	-36.294662	22.444098	-0.002146	0.002451
	205.954000	2550.629596	-36.267711	22.456200	-0.002129	0.002437
	206.499000	2558.945965	-36.247182	22.461742	-0.002118	0.002423
	207.040000	2573.635266	-36.241292	22.464062	-0.002112	0.002407
	207.583000	2579.517105	-36.211742	22.477191	-0.002115	0.002387
	208.126000	2580.352767	-36.177359	22.485508	-0.002147	0.002382
	208.667000	2593.578451	-36.167347	22.488915	-0.002135	0.002410
	209.212000	2602.397184	-36.135482	22.500032	-0.002109	0.002406
	209.756000	2606.424143	-36.106953	22.511161	-0.002094	0.002405
	210.301000	2607.670391	-36.101073	22.517045	-0.002074	0.002406
	210.845000	2617.213686	-36.066728	22.519136	-0.002058	0.002405
	211.385000	2632.959239	-36.044414	22.530383	-0.002024	0.002408
	211.928000	2638.303291	-36.023656	22.538523	-0.002015	0.002409
	212.468000	2638.256597	-36.011187	22.548060	-0.001959	0.002443
	213.011000	2647.616337	-35.971129	22.554576	-0.001932	0.002453
	213.556000	2653.623767	-35.960448	22.569528	-0.001918	0.002455
	214.107000	2667.710876	-35.930779	22.572882	-0.001905	0.002455
	214.649000	2669.419233	-35.915167	22.582859	-0.001894	0.002451
	215.196000	2675.165821	-35.882432	22.588852	-0.001884	0.002447
	215.735000	2685.588253	-35.863294	22.595164	-0.001876	0.002436
	216.278000	2685.180887	-35.848693	22.609372	-0.001883	0.002456
	216.820000	2698.379200	-35.810787	22.614328	-0.001808	0.002491
	217.363000	2704.470357	-35.797583	22.622862	-0.001785	0.002498
	217.903000	2706.961242	-35.771277	22.631396	-0.001767	0.002502
	218.449000	2706.698790	-35.759709	22.638121	-0.001756	0.002504
	218.988000	2715.845991	-35.723455	22.641438	-0.001750	0.002502
	219.533000	2729.327688	-35.711321	22.648766	-0.001744	0.002500
	220.076000	2732.026281	-35.697464	22.657846	-0.001745	0.002495
	220.618000	2733.029398	-35.662816	22.665451	-0.001755	0.002492
	221.163000	2744.628842	-35.624842	22.678311	-0.001644	0.002451
	221.718000	2753.553844	-35.619799	22.682570	-0.001625	0.002437
	222.258000	2703.179025	-35.597402	22.688249	-0.001615	0.002431
	222.800000	2752.909789	-35.572238	22.696271	-0.001609	0.002427
	223.347000	2768.629580	-35.556555	22.704902	-0.001606	0.002423
	223.887000	2773.121868	-35.513197	22.708858	-0.001605	0.002418
	224.432000	2776.166642	-35.503117	22.715010	-0.001603	0.002411
	224.973000	2784.623094	-35.483071	22.727264	-0.001613	0.002407
	225.516000	2780.515628	-35.472241	22.734423	-0.001606	0.002404
	226.071000	2791.392120	-35.439268	22.740849	-0.001598	0.002401
	226.612000	2796.985744	-35.410324	22.749623	-0.001591	0.002399
	227.154000	2800.877451	-35.382075	22.761332	-0.001583	0.002392
	227.697000	2811.034210	-35.368991	22.763892	-0.001578	0.002386
	228.240000	2811.520472	-35.342053	22.772790	-0.001583	0.002381
	228.783000	2814.904985	-35.323611	22.781411	-0.001586	0.002374
	229.328000	2822.010530	-35.300956	22.791283	-0.001585	0.002370
	229.867000	2826.317653	-35.271992	22.794141	-0.001594	0.002367
	230.413000	2827.369074	-35.253024	22.799385	-0.001597	0.002372
	230.959000	2836.962284	-35.235673	22.810104	-0.001590	0.002368
	231.501000	2843.726480	-35.211257	22.816363	-0.001580	0.002367
	232.045000	2847.344463	-35.179865	22.822570	-0.001572	0.002368
	232.586000	2856.536749	-35.161162	22.828875	-0.001570	0.002365
	233.132000	2853.041136	-35.151362	22.833741	-0.001569	0.002360
	233.676000	2863.821019	-35.115865	22.847743	-0.001568	0.002358
	234.221000	2865.188028	-35.103618	22.853677	-0.001564	0.002355
	234.763000	2871.354862	-35.070816	22.857224	-0.001563	0.002351
	235.308000	2876.713406	-35.038274	22.867961	-0.001568	0.002354
	235.848000	2879.898261	-35.031225	22.873588	-0.001562	0.002359
	236.393000	2884.372839	-35.005179	22.878918	-0.001557	0.002359
	236.936000	2890.396370	-34.981098	22.886928	-0.001553	0.002358
	237.479000	2892.294725	-34.960269	22.894714	-0.001552	0.002355
	238.021000	2907.555626	-34.934310	22.904893	-0.001550	0.002352
	238.565000	2902.123016	-34.904029	22.908693	-0.001549	0.002351
	239.109000	2908.615098	-34.887519	22.919618	-0.001548	0.002347
	239.649000	2910.099646	-34.873465	22.923215	-0.001547	0.002341
	240.194000	2918.580251	-34.841249	22.929097	-0.001545	0.002337
	240.732000	2917.152057	-34.829843	22.938410	-0.001544	0.002334
	241.274000	2921.417316	-34.797611	22.944972	-0.001537	0.002341
	241.812000	2928.840059	-34.774060	22.953646	-0.001531	0.002340
	242.352000	2939.091817	-34.751167	22.963635	-0.001526	0.002338
	242.895000	2944.194348	-34.724223	22.965691	-0.001523	0.002338
	243.441000	2937.050160	-34.714285	22.976554	-0.001519	0.002337
	243.982000	2950.425588	-34.675061	22.987493	-0.001517	0.002335
	244.523000	2947.564370	-34.669635	22.995712	-0.001515	0.002331
	245.068000	2951.596159	-34.645280	23.002822	-0.001514	0.002326
	245.612000	2957.453846	-34.623334	23.010031	-0.001513	0.002321
	246.156000	2959.487453	-34.591678	23.015591	-0.001515	0.002317
	246.697000	2963.098996	-34.556438	23.023622	-0.001519	0.002323
	247.238000	2967.053498	-34.561922	23.036357	-0.001514	0.002325
	247.781000	2977.461439	-34.517981	23.044959	-0.001506	0.002326
	248.327000	2972.151199	-34.506233	23.051135	-0.001506	0.002321
	248.870000	2978.160240	-34.484789	23.062007	-0.001503	0.002320
	249.417000	2976.965516	-34.451259	23.064213	-0.001504	0.002317
	249.971000	2986.394493	-34.428182	23.073531	-0.001503	0.002313
	250.513000	2994.701202	-34.421871	23.078750	-0.001500	0.002310
	251.058000	2991.873797	-34.383565	23.086888	-0.001499	0.002304
	251.607000	2998.113088	-34.367174	23.096935	-0.001502	0.002299
	252.149000	3000.824563	-34.350731	23.099081	-0.001506	0.002294
	252.691000	3005.429561	-34.325403	23.109966	-0.001506	0.002300
	253.234000	3007.591979	-34.297032	23.111489	-0.001500	0.002303
	253.776000	3005.997941	-34.272570	23.123078	-0.001496	0.002301
	254.325000	3009.978205	-34.249796	23.130367	-0.001493	0.002298
	254.876000	3018.510334	-34.230851	23.138083	-0.001493	0.002295
	255.419000	3022.216875	-34.210959	23.149882	-0.001493	0.002291
	255.960000	3025.984602	-34.183078	23.155937	-0.001494	0.002287
	256.501000	3031.471957	-34.157808	23.163905	-0.001493	0.002282
	257.043000	3029.439961	-34.135949	23.169109	-0.001493	0.002277
	257.587000	3033.993435	-34.122642	23.175708	-0.001493	0.002272
	258.131000	3031.563735	-34.086295	23.182904	-0.001491	0.002264
	258.678000	3042.337178	-34.072183	23.187895	-0.001492	0.002260
	259.221000	3043.754101	-34.044955	23.200657	-0.001559	0.002097
	259.764000	3043.488428	-34.021305	23.210043	-0.001589	0.002071
	260.306000	3049.664923	-34.004737	23.217469	-0.001599	0.002058
	260.849000	3047.847075	-33.968325	23.227372	-0.001610	0.002039
	261.399000	3059.868376	-33.949766	23.239738	-0.001717	0.002012
	261.937000	3062.760187	-33.934560	23.245493	-0.001733	0.001995
	262.483000	3068.625925	-33.909474	23.254688	-0.001749	0.001971
	263.026000	3060.953610	-33.881019	23.260553	-0.001805	0.001904
	263.571000	3069.271591	-33.876971	23.266027	-0.001883	0.001833
	264.115000	3070.464704	-33.833416	23.273304	-0.001892	0.001826
	264.661000	3076.156547	-33.829059	23.273003	-0.001895	0.001824
	265.204000	3078.025919	-33.792731	23.282209	-0.001897	0.001821
	265.746000	3077.890668	-33.783250	23.293457	-0.001902	0.001822
	266.288000	3082.490836	-33.764547	23.304336	-0.001906	0.001825
	266.828000	3085.542050	-33.738156	23.308700	-0.001907	0.001825
	267.386000	3086.076617	-33.725114	23.321779	-0.001906	0.001826
	267.926000	3088.920123	-33.689285	23.329328	-0.001906	0.001827
	268.467000	3090.795935	-33.654515	23.340042	-0.001905	0.001827
	269.010000	3096.521592	-33.641746	23.345992	-0.001905	0.001827
	269.551000	3098.556808	-33.623040	23.354783	-0.001906	0.001827
	270.096000	3105.372528	-33.596749	23.364354	-0.001905	0.001827
	270.636000	3108.428573	-33.567215	23.366262	-0.001906	0.001826
	271.182000	3103.565952	-33.555880	23.374595	-0.001905	0.001826
	271.721000	3111.373518	-33.518537	23.380773	-0.001904	0.001825
	272.264000	3108.209594	-33.495647	23.384668	-0.001904	0.001823
	272.809000	3116.912398	-33.485416	23.395719	-0.001907	0.001823
	273.354000	3113.014250	-33.470319	23.399712	-0.001908	0.001829
	273.908000	3116.036482	-33.428661	23.406524	-0.001906	0.001828
	274.450000	3120.847579	-33.407501	23.420105	-0.001907	0.001826
	274.993000	3126.925855	-33.391892	23.431355	-0.001906	0.001827
	275.537000	3133.440480	-33.359476	23.440134	-0.001906	0.001827
	276.080000	3131.134760	-33.345246	23.448265	-0.001905	0.001828
	276.619000	3138.187171	-33.325383	23.453677	-0.001906	0.001828
	277.164000	3138.014886	-33.293817	23.458549	-0.001904	0.001830
	277.710000	3135.715607	-33.270618	23.468296	-0.001903	0.001830
	278.253000	3143.605290	-33.250060	23.471429	-0.001901	0.001830
	278.796000	3139.449521	-33.239481	23.470543	-0.001900	0.001830
	279.337000	3150.921764	-33.201237	23.481876	-0.001900	0.001826
	279.877000	3147.670893	-33.194719	23.489209	-0.001899	0.001824
	280.423000	3148.202239	-33.148716	23.493316	-0.001899	0.001827
	280.965000	3148.271475	-33.138705	23.503750	-0.001900	0.001835
	281.505000	3157.156225	-33.111944	23.509667	-0.001901	0.001836
	282.049000	3160.308878	-33.103845	23.525120	-0.001900	0.001837
	282.589000	3158.767974	-33.068003	23.534664	-0.001898	0.001837
	283.132000	3159.726007	-33.045918	23.543602	-0.001898	0.001836
	283.678000	3167.027990	-33.048365	23.550364	-0.001897	0.001837
	284.231000	3167.406373	-33.004562	23.557839	-0.001897	0.001837
	284.770000	3169.687940	-32.972498	23.566154	-0.001897	0.001836
	285.317000	3172.138572	-32.954477	23.577438	-0.001897	0.001834
	285.861000	3171.077491	-32.946745	23.579285	-0.001896	0.001836
	286.404000	3177.819145	-32.904913	23.581763	-0.001893	0.001837
	286.946000	3175.610033	-32.894276	23.595573	-0.001890	0.001838
	287.488000	3176.283072	-32.861925	23.602740	-0.001888	0.001837
	288.028000	3181.414586	-32.845537	23.612905	-0.001888	0.001834
	288.571000	3193.782068	-32.828666	23.623051	-0.001888	0.001837
	289.115000	3191.349147	-32.796295	23.632698	-0.001893	0.001846
	289.659000	3189.772821	-32.776651	23.645109	-0.001892	0.001847
	290.204000	3193.294196	-32.761918	23.656221	-0.001891	0.001843
	290.749000	3201.169388	-32.733557	23.665035	-0.001889	0.001842
	291.294000	3198.377406	-32.707888	23.671116	-0.001887	0.001843
	291.837000	3206.413612	-32.674220	23.680484	-0.001889	0.001842
	292.382000	3203.475108	-32.669354	23.685094	-0.001888	0.001841
	292.924000	3203.243248	-32.640802	23.688086	-0.001888	0.001842
	293.468000	3200.972951	-32.621986	23.694581	-0.001886	0.001842
	294.011000	3203.019438	-32.596781	23.699364	-0.001882	0.001844
	294.559000	3206.874113	-32.574139	23.706672	-0.001880	0.001845
	295.104000	3208.431117	-32.542966	23.710688	-0.001879	0.001845
	295.646000	3217.856874	-32.520028	23.715517	-0.001879	0.001843
	296.192000	3212.549854	-32.499659	23.725881	-0.001878	0.001840
	296.733000	3220.204458	-32.488050	23.730498	-0.001876	0.001841
	297.278000	3223.036693	-32.464780	23.742754	-0.001878	0.001843
	297.820000	3210.649890	-32.428851	23.750755	-0.001881	0.001853
	298.363000	3214.224399	-32.406515	23.767392	-0.001881	0.001853
	298.900000	3225.247415	-32.392922	23.776238	-0.001880	0.001849
	299.444000	3224.844880	-32.379899	23.783370	-0.001877	0.001849
	299.990000	3231.185609	-32.345915	23.798884	-0.001874	0.001848
	300.528000	3240.266796	-32.341040	23.803373	-0.001874	0.001848
	301.072000	3230.356387	-32.308289	23.809648	-0.001874	0.001847
	301.615000	3239.962480	-32.279213	23.816306	-0.001872	0.001849
	302.163000	3238.672758	-32.243139	23.827482	-0.001871	0.001849
	302.704000	3239.888413	-32.225080	23.829119	-0.001868	0.001851
	303.248000	3240.340863	-32.214424	23.835191	-0.001866	0.001852
	303.791000	3239.706468	-32.193511	23.843939	-0.001864	0.001853
	304.335000	3244.174605	-32.164776	23.851015	-0.001865	0.001850
	304.876000	3247.193616	-32.154986	23.862857	-0.001867	0.001849
	305.422000	3247.053534	-32.117657	23.867991	-0.001864	0.001850
	305.964000	3249.872889	-32.091936	23.878412	-0.001862	0.001850
	306.506000	3250.132121	-32.065001	23.890248	-0.001863	0.001859
	307.048000	3255.315160	-32.039274	23.900642	-0.001867	0.001868
	307.590000	3260.609299	-32.037081	23.913199	-0.001865	0.001865
	308.144000	3256.516324	-31.994000	23.918854	-0.001863	0.001861
	308.687000	3257.063772	-31.993024	23.935525	-0.001862	0.001860
	309.233000	3262.535026	-31.959372	23.941431	-0.001863	0.001860
	309.775000	3266.489529	-31.936363	23.950386	-0.001862	0.001860
	310.319000	3268.449069	-31.916010	23.961450	-0.001863	0.001859
	310.863000	3265.318957	-31.891687	23.966836	-0.001861	0.001859
	311.407000	3265.459039	-31.872746	23.969845	-0.001859	0.001860
	311.951000	3267.995009	-31.851839	23.973998	-0.001859	0.001860
	312.494000	3273.063729	-31.826209	23.982778	-0.001860	0.001857
	313.039000	3272.332725	-31.814429	23.990961	-0.001859	0.001856
	313.590000	3274.596581	-31.789848	23.994980	-0.001859	0.001855
	314.147000	3270.709705	-31.756892	24.005145	-0.001858	0.001855
	314.689000	3274.630394	-31.747147	24.010457	-0.001857	0.001855
	315.245000	3270.374796	-31.708841	24.022408	-0.001854	0.001852
	315.789000	3281.070953	-31.691091	24.037177	-0.001854	0.001851
	316.334000	3286.247551	-31.671779	24.043353	-0.001853	0.001862
	316.877000	3283.173795	-31.654170	24.059753	-0.001853	0.001868
	317.418000	3283.513534	-31.604256	24.070428	-0.001854	0.001864
	317.961000	3286.579240	-31.600034	24.081057	-0.001851	0.001862
	318.504000	3293.345046	-31.586038	24.096289	-0.001849	0.001861
	319.050000	3288.247345	-31.548837	24.102071	-0.001846	0.001862
	319.591000	3294.744258	-31.537421	24.108652	-0.001845	0.001863
	320.139000	3295.148403	-31.505263	24.112971	-0.001845	0.001864
	320.680000	3298.421816	-31.478683	24.123999	-0.001845	0.001858
	321.225000	3299.829078	-31.468143	24.129824	-0.001848	0.001851
	321.767000	3301.360321	-31.428433	24.136605	-0.001850	0.001848
	322.312000	3298.014451	-31.416534	24.142461	-0.001851	0.001848
	322.851000	3302.472928	-31.393554	24.147134	-0.001849	0.001852
	323.396000	3302.633941	-31.376277	24.153425	-0.001848	0.001854
	323.939000	3305.683546	-31.342931	24.161437	-0.001847	0.001856
	324.480000	3306.599715	-31.326974	24.170499	-0.001845	0.001858
	325.026000	3307.908759	-31.310589	24.180896	-0.001842	0.001859
	325.568000	3313.999917	-31.264201	24.187480	-0.001840	0.001860
	326.111000	3305.443635	-31.244077	24.207283	-0.001842	0.001861
	326.672000	3311.397931	-31.226384	24.208586	-0.001848	0.001870
	327.213000	3311.843940	-31.213616	24.221991	-0.001849	0.001874
	327.754000	3320.005737	-31.171188	24.231911	-0.001848	0.001868
	328.304000	3320.419543	-31.133843	24.240572	-0.001844	0.001869
	328.843000	3317.204095	-31.086092	24.253510	-0.001840	0.001871
	329.383000	3321.921803	-31.037774	24.255932	-0.001837	0.001873
	329.927000	3321.240715	-30.988687	24.273937	-0.001834	0.001874
	330.468000	3326.832729	-30.937819	24.283200	-0.001829	0.001890
	331.012000	3342.035667	-30.913496	24.298875	-0.001093	0.002343
	331.553000	3334.534027	-30.846874	24.312124	-0.001080	0.002357
	332.100000	3347.466668	-30.821959	24.329924	-0.001067	0.002372
	332.647000	3342.045328	-30.772231	24.345100	-0.001058	0.002382
	333.197000	3351.454984	-30.718078	24.364755	-0.001052	0.002390
	333.740000	3348.062419	-30.679038	24.377048	-0.001043	0.002398
	334.283000	3348.163858	-30.630029	24.397485	-0.001041	0.002401
	334.840000	3358.544428	-30.578253	24.417717	-0.001038	0.002403
	335.385000	3358.826203	-30.541419	24.432719	-0.001036	0.002407
	335.929000	3351.376087	-30.504865	24.447673	-0.001051	0.002427
	336.471000	3363.661452	-30.450213	24.460395	-0.001053	0.002432
	337.013000	3356.125998	-30.403461	24.473901	-0.001049	0.002437
	337.554000	3358.814932	-30.350535	24.496250	-0.001049	0.002440
	338.098000	3365.535654	-30.302172	24.510539	-0.001048	0.002444
	338.641000	3370.145484	-30.264482	24.532024	-0.001047	0.002445
	339.187000	3371.480290	-30.237322	24.550861	-0.001049	0.002446
	339.733000	3375.938766	-30.183781	24.567625	-0.001056	0.002443
	340.277000	3381.102484	-30.135776	24.588401	-0.001056	0.002446
	340.821000	3379.130063	-30.092881	24.603831	-0.001052	0.002448
	341.378000	3384.285730	-30.037173	24.624408	-0.001053	0.002450
	341.922000	3377.341198	-29.991001	24.650302	-0.001057	0.002445
	342.463000	3385.916801	-29.953368	24.663466	-0.001053	0.002439
	343.006000	3391.900080	-29.900043	24.679951	-0.001050	0.002438
	343.548000	3391.912961	-29.863605	24.703234	-0.001054	0.002435
	344.094000	3395.632384	-29.817268	24.718479	-0.001051	0.002437
	344.635000	3395.142901	-29.779066	24.741633	-0.001052	0.002436
	345.180000	3394.355543	-29.714772	24.755033	-0.001050	0.002437
	345.723000	3394.337831	-29.683262	24.769578	-0.001050	0.002439
	346.263000	3401.931250	-29.621020	24.785459	-0.001047	0.002441
	346.800000	3404.138751	-29.581036	24.807644	-0.001047	0.002440
	347.344000	3403.929433	-29.547091	24.823946	-0.001052	0.002438
	347.896000	3401.961842	-29.508963	24.846826	-0.001051	0.002438
	348.439000	3412.226482	-29.435556	24.859112	-0.001053	0.002434
	348.983000	3411.761152	-29.401369	24.877342	-0.001051	0.002433
	349.526000	3407.801819	-29.355103	24.894265	-0.001054	0.002429
	350.067000	3410.044743	-29.316942	24.908064	-0.001054	0.002431
	350.608000	3412.316650	-29.262700	24.933436	-0.001051	0.002434
	351.156000	3420.214385	-29.228729	24.953921	-0.001051	0.002435
	351.699000	3418.597805	-29.171249	24.971982	-0.001052	0.002436
	352.246000	3419.787698	-29.140740	24.995402	-0.001054	0.002430
	352.788000	3423.093315	-29.090697	25.008457	-0.001057	0.002424
	353.333000	3424.296089	-29.048514	25.029296	-0.001057	0.002421
	353.874000	3432.873303	-29.000515	25.042291	-0.001059	0.002417
	354.413000	3431.887897	-28.942972	25.063896	-0.001055	0.002417
	354.954000	3426.849770	-28.907043	25.076367	-0.001054	0.002416
	355.529000	3434.728183	-28.853624	25.098616	-0.001056	0.002414
	356.072000	3435.961550	-28.803204	25.119460	-0.001054	0.002413
	356.613000	3431.400025	-28.777229	25.135481	-0.001058	0.002404
	357.157000	3429.271420	-28.708852	25.158486	-0.001060	0.002403
	357.697000	3439.983679	-28.679986	25.174087	-0.001059	0.002404
	358.243000	3441.347467	-28.641249	25.197707	-0.001058	0.002403
	358.798000	3442.072030	-28.585628	25.214908	-0.001057	0.002406
	359.342000	3445.991110	-28.538791	25.235744	-0.001051	0.002413
	359.885000	3441.989913	-28.498612	25.256323	-0.001046	0.002418
	360.430000	3448.631739	-28.444678	25.269379	-0.001042	0.002422
	360.971000	3449.010122	-28.409525	25.289672	-0.001039	0.002425
	361.511000	3449.921461	-28.370415	25.308931	-0.001036	0.002428
	362.059000	3445.557982	-28.321299	25.327508	-0.001034	0.002424
	362.600000	3451.172539	-28.269616	25.342523	-0.001035	0.002421
	363.146000	3454.259177	-28.223112	25.364957	-0.001032	0.002424
	363.692000	3458.972056	-28.180568	25.376858	-0.001035	0.002420
	364.232000	3454.243076	-28.130170	25.395618	-0.001037	0.002417
	364.784000	3452.061337	-28.092267	25.421592	-0.001037	0.002416
	365.328000	3451.140337	-28.042903	25.436182	-0.001041	0.002407
	365.870000	3452.822933	-27.996090	25.454045	-0.001039	0.002407
	366.412000	3457.133276	-27.940086	25.476036	-0.001038	0.002409
	366.956000	3461.960475	-27.907090	25.496783	-0.001036	0.002411
	367.500000	3464.196959	-27.868392	25.512110	-0.001042	0.002407
	368.041000	3460.719057	-27.820033	25.533851	-0.001047	0.002411
	368.584000	3465.003639	-27.769442	25.554513	-0.001045	0.002414
	369.129000	3472.139778	-27.727633	25.573527	-0.001042	0.002418
	369.675000	3465.356259	-27.671918	25.593658	-0.001044	0.002420
	370.217000	3470.207610	-27.629706	25.615741	-0.001051	0.002419
	370.761000	3466.274039	-27.585637	25.634766	-0.001064	0.002395
	371.306000	3469.565164	-27.544662	25.658060	-0.001128	0.002390
	371.846000	3473.564751	-27.491024	25.679540	-0.001129	0.002387
	372.387000	3467.858417	-27.454177	25.705594	-0.001131	0.002385
	372.932000	3478.271189	-27.408053	25.727786	-0.001135	0.002380
	373.471000	3476.836555	-27.351682	25.743305	-0.001146	0.002370
	374.014000	3475.894623	-27.321752	25.762280	-0.001148	0.002367
	374.558000	3476.121653	-27.267809	25.783424	-0.001148	0.002369
	375.103000	3480.396574	-27.232025	25.803904	-0.001144	0.002373
	375.647000	3481.889173	-27.178343	25.821529	-0.001147	0.002368
	376.191000	3482.753818	-27.131516	25.840204	-0.001152	0.002366
	376.734000	3478.445085	-27.087392	25.858816	-0.001150	0.002369
	377.279000	3483.439738	-27.037657	25.879249	-0.001152	0.002369
	377.823000	3482.455942	-26.986525	25.898098	-0.001153	0.002368
	378.369000	3485.046657	-26.954071	25.921345	-0.001153	0.002367
	378.913000	3486.724423	-26.906224	25.943809	-0.001159	0.002359
	379.456000	3481.266049	-26.863191	25.958677	-0.001158	0.002358
	379.999000	3488.899721	-26.818883	25.985542	-0.001157	0.002358
	380.536000	3488.899721	-26.764753	26.005093	-0.001164	0.002354
	381.081000	3488.703284	-26.739573	26.024724	-0.001170	0.002350
	381.622000	3489.901228	-26.683840	26.046795	-0.001167	0.002351
	382.163000	3489.730553	-26.642977	26.064473	-0.001170	0.002348
	382.707000	3489.860974	-26.593369	26.084560	-0.001172	0.002345
	383.251000	3491.646619	-26.542507	26.108411	-0.001176	0.002341
	383.790000	3497.617017	-26.504749	26.130529	-0.001181	0.002335
	384.333000	3495.494853	-26.448639	26.143988	-0.001177	0.002342
	384.878000	3490.062242	-26.391704	26.163306	-0.001180	0.002338
	385.420000	3491.252135	-26.362718	26.184765	-0.001181	0.002339
	385.969000	3501.107800	-26.323984	26.207566	-0.001180	0.002342
	386.515000	3498.752166	-26.279383	26.224578	-0.001174	0.002347
	387.060000	3497.348124	-26.220767	26.248447	-0.001173	0.002348
	387.602000	3491.548401	-26.183373	26.267037	-0.001172	0.002350
	388.142000	3498.834283	-26.137774	26.286089	-0.001173	0.002350
	388.686000	3499.584608	-26.092026	26.307763	-0.001170	0.002355
	389.236000	3497.116264	-26.035832	26.329245	-0.001171	0.002354
	389.768000	3493.240658	-25.991530	26.350325	-0.001167	0.002358
	390.312000	3499.257749	-25.958892	26.372951	-0.001161	0.002363
	390.854000	3503.629279	-25.907203	26.389491	-0.001157	0.002365
	391.395000	3499.863162	-25.868824	26.420756	-0.001162	0.002363
	391.940000	3503.239625	-25.808292	26.435457	-0.001158	0.002368
	392.483000	3508.097416	-25.783763	26.461267	-0.001155	0.002371
	393.027000	3502.634212	-25.730090	26.481708	-0.001152	0.002372
	393.574000	3509.172989	-25.674353	26.505990	-0.001153	0.002371
	394.118000	3498.987246	-25.638988	26.525157	-0.001155	0.002369
	394.663000	3504.389265	-25.589785	26.549134	-0.001155	0.002371
	395.205000	3508.411394	-25.555907	26.570096	-0.001155	0.002373
	395.745000	3507.483953	-25.503507	26.596118	-0.001153	0.002376
	396.295000	3506.836677	-25.446127	26.622802	-0.001155	0.002375
	396.837000	3511.612351	-25.418407	26.637240	-0.001155	0.002378
	397.378000	3506.905913	-25.367117	26.666625	-0.001153	0.002379
	397.921000	3506.785152	-25.320526	26.683021	-0.001151	0.002381
	398.464000	3507.118451	-25.276917	26.712842	-0.001159	0.002375
	399.007000	3514.982373	-25.241655	26.731758	-0.001162	0.002371
	399.550000	3509.011976	-25.198963	26.754103	-0.001163	0.002373
	400.093000	3512.460895	-25.144125	26.769783	-0.001160	0.002375
	400.636000	3516.388025	-25.089112	26.798845	-0.001159	0.002377
	401.181000	3510.263054	-25.050263	26.820664	-0.001162	0.002372
	401.721000	3511.256510	-25.001346	26.842982	-0.001173	0.002363
	402.267000	3507.880047	-24.966822	26.867569	-0.001181	0.002352
	402.823000	3514.433316	-24.901491	26.890052	-0.001190	0.002346
	403.363000	3511.192105	-24.876743	26.912277	-0.001185	0.002353
	403.927000	3516.502345	-24.811152	26.932026	-0.001183	0.002353
	404.469000	3515.309232	-24.768458	26.961758	-0.001183	0.002352
	405.015000	3515.979050	-24.745658	26.985740	-0.001182	0.002354
	405.559000	3519.289497	-24.679900	27.008364	-0.001178	0.002361
	406.102000	3513.483333	-24.635092	27.029632	-0.001173	0.002365
	406.646000	3520.394053	-24.595914	27.059857	-0.001172	0.002364
	407.188000	3511.961751	-24.540293	27.082133	-0.001168	0.002367
	407.730000	3510.169666	-24.502123	27.106752	-0.001171	0.002363
	408.272000	3521.360136	-24.463058	27.133481	-0.001174	0.002363
	408.814000	3510.738045	-24.408480	27.157971	-0.001175	0.002362
	409.358000	3519.110771	-24.365151	27.182911	-0.001178	0.002357
	409.901000	3516.589293	-24.326607	27.204701	-0.001178	0.002358
	410.441000	3518.230025	-24.291029	27.235858	-0.001182	0.002353
	410.984000	3520.026941	-24.230803	27.260878	-0.001194	0.002347
	411.543000	3519.484324	-24.190679	27.287307	-0.001191	0.002345
	412.084000	3522.055717	-24.134108	27.312806	-0.001194	0.002339
	412.624000	3524.392030	-24.077746	27.339693	-0.001198	0.002335
	413.168000	3522.870447	-24.060659	27.359255	-0.001197	0.002340
	413.711000	3518.671203	-24.007547	27.388187	-0.001195	0.002345
	414.253000	3520.889976	-23.961484	27.412914	-0.001195	0.002346
	414.791000	3516.929032	-23.926228	27.439974	-0.001192	0.002349
	415.332000	3520.822350	-23.870182	27.468600	-0.001188	0.002353
	415.892000	3523.105528	-23.818683	27.494285	-0.001192	0.002351
	416.434000	3517.455548	-23.767309	27.522555	-0.001199	0.002348
	416.978000	3519.764488	-23.740127	27.544183	-0.001194	0.002353
	417.517000	3522.556470	-23.682094	27.575249	-0.001188	0.002357
	418.057000	3519.321700	-23.641557	27.599669	-0.001185	0.002360
	418.601000	3524.298641	-23.602891	27.626272	-0.001185	0.002359
	419.152000	3518.800014	-23.552374	27.654220	-0.001184	0.002360
	419.693000	3528.470513	-23.502495	27.686794	-0.001190	0.002357
	420.238000	3514.517043	-23.455958	27.710321	-0.001199	0.002351
	420.782000	3517.523174	-23.420577	27.739808	-0.001199	0.002354
	421.322000	3519.782200	-23.367014	27.765682	-0.001192	0.002359
	421.868000	3514.856783	-23.316999	27.799003	-0.001186	0.002362
	422.407000	3529.393123	-23.278366	27.825409	-0.001182	0.002365
	422.950000	3522.892989	-23.223527	27.850452	-0.001180	0.002366
	423.509000	3512.010056	-23.182195	27.888256	-0.001183	0.002363
	424.055000	3514.942120	-23.140450	27.912639	-0.001180	0.002366
	424.595000	3514.871274	-23.100325	27.939560	-0.001189	0.002353
	425.138000	3515.914644	-23.056249	27.970981	-0.001195	0.002353
	425.680000	3515.671513	-23.005352	28.001596	-0.001197	0.002353
	426.225000	3519.988298	-22.954658	28.028146	-0.001195	0.002355
	426.768000	3512.636400	-22.909481	28.058285	-0.001198	0.002350
	427.309000	3517.392753	-22.867743	28.089953	-0.001203	0.002349
	427.853000	3516.801831	-22.815902	28.125206	-0.001203	0.002348
	428.394000	3510.633386	-22.770512	28.146768	-0.001202	0.002351
	428.937000	3511.151851	-22.724494	28.183241	-0.001199	0.002355
	429.477000	3517.065894	-22.687046	28.213202	-0.001197	0.002357
	430.023000	3516.441160	-22.656379	28.248363	-0.001192	0.002361
	430.565000	3514.787547	-22.595837	28.279382	-0.001192	0.002362
	431.107000	3518.004606	-22.553603	28.312277	-0.001190	0.002364
	431.648000	3515.019406	-22.512908	28.335824	-0.001189	0.002365
	432.194000	3510.602794	-22.474587	28.375695	-0.001191	0.002363
	432.736000	3511.486760	-22.419890	28.407456	-0.001193	0.002362
	433.279000	3514.575008	-22.356679	28.441691	-0.001193	0.002364
	433.831000	3499.668335	-22.327580	28.478674	-0.001192	0.002366
	434.372000	3508.147330	-22.274639	28.509008	-0.001185	0.002370
	434.915000	3510.163225	-22.237509	28.541627	-0.001183	0.002371
	435.460000	3512.436742	-22.204832	28.583231	-0.001181	0.002372
	436.003000	3510.454661	-22.145856	28.611860	-0.001182	0.002370
	436.546000	3506.637020	-22.086219	28.650220	-0.001190	0.002363
	437.093000	3501.032123	-22.054509	28.684188	-0.001192	0.002360
	437.632000	3499.116057	-21.993294	28.718948	-0.001196	0.002357
	438.180000	3503.284709	-21.960866	28.750929	-0.001198	0.002358
	438.723000	3504.012492	-21.912072	28.792678	-0.001198	0.002357
	439.276000	3498.415646	-21.861823	28.825277	-0.001196	0.002358
	439.820000	3503.967408	-21.831533	28.866006	-0.001198	0.002356
	440.361000	3501.932191	-21.777596	28.903704	-0.001205	0.002351
	440.904000	3494.617327	-21.716877	28.942299	-0.001209	0.002348
	441.454000	3492.757616	-21.684665	28.976031	-0.001209	0.002349
	441.999000	3487.281531	-21.649973	29.021056	-0.001209	0.002348
	442.554000	3485.996639	-21.597256	29.053813	-0.001212	0.002346
	443.096000	3482.531619	-21.547020	29.092346	-0.001216	0.002343
	443.640000	3478.361357	-21.511954	29.136979	-0.001212	0.002349
	444.192000	3476.029875	-21.451380	29.171339	-0.001217	0.002343
	444.733000	3477.852553	-21.417526	29.208124	-0.001219	0.002343
	445.275000	3471.666397	-21.369018	29.243100	-0.001217	0.002346
	445.817000	3466.047009	-21.319101	29.282957	-0.001212	0.002351
	446.357000	3468.942040	-21.272071	29.322815	-0.001210	0.002349
	446.900000	3465.056773	-21.235466	29.363264	-0.001217	0.002343
	447.438000	3457.566404	-21.193461	29.400936	-0.001220	0.002340
	447.980000	3455.452290	-21.137502	29.443317	-0.001221	0.002340
	448.527000	3462.458008	-21.122788	29.488532	-0.001224	0.002336
	449.070000	3446.641607	-21.040996	29.528046	-0.001230	0.002328
	449.614000	3450.185524	-21.006990	29.572620	-0.001230	0.002329
	450.155000	3447.135919	-20.958138	29.612680	-0.001231	0.002330
	450.697000	3434.692760	-20.907058	29.653444	-0.001230	0.002333
	451.242000	3429.712599	-20.865345	29.694218	-0.001228	0.002336
	451.788000	3429.205405	-20.831210	29.737665	-0.001225	0.002337
	452.327000	3420.745731	-20.783077	29.780048	-0.001223	0.002340
	452.870000	3425.263783	-20.715128	29.818952	-0.001223	0.002341
	453.412000	3411.141248	-20.685598	29.861080	-0.001225	0.002336
	453.952000	3404.051804	-20.643631	29.905500	-0.001229	0.002336
	454.494000	3399.110285	-20.584777	29.949613	-0.001232	0.002334
	455.038000	3401.180925	-20.556065	29.989174	-0.001222	0.002342
	455.582000	3389.578259	-20.525334	30.029789	-0.001222	0.002333
	456.128000	3376.917731	-20.462603	30.076598	-0.001230	0.002326
	456.671000	3376.188338	-20.415036	30.124975	-0.001232	0.002329
	457.219000	3368.978133	-20.376940	30.164413	-0.001234	0.002328
	457.775000	3361.585982	-20.313513	30.211134	-0.001235	0.002331
	458.316000	3349.978486	-20.272580	30.255014	-0.001230	0.002334
	458.861000	3337.245502	-20.234110	30.301223	-0.001230	0.002335
	459.405000	3332.165511	-20.203121	30.342406	-0.001231	0.002335
	459.947000	3320.607929	-20.125641	30.391270	-0.001229	0.002339
	460.490000	3314.246268	-20.094359	30.437599	-0.001228	0.002339
	461.032000	3300.267036	-20.056125	30.481918	-0.001227	0.002339
	461.575000	3287.464817	-20.010938	30.529966	-0.001228	0.002338
	462.119000	3280.238510	-19.954966	30.574430	-0.001233	0.002333
	462.659000	3270.733857	-19.915224	30.617872	-0.001236	0.002329
	463.199000	3258.865518	-19.868111	30.662312	-0.001236	0.002331
	463.744000	3242.406672	-19.827069	30.709848	-0.001238	0.002324
	464.299000	3231.275777	-19.774018	30.751280	-0.001245	0.002321
	464.842000	3215.417513	-19.726644	30.801030	-0.001244	0.002324
	465.388000	3201.916493	-19.689781	30.849747	-0.001241	0.002329
	465.936000	3188.983852	-19.640063	30.894959	-0.001237	0.002330
	466.477000	3170.106576	-19.597749	30.941576	-0.001238	0.002330
	467.020000	3152.546395	-19.559579	30.988923	-0.001243	0.002327
	467.560000	3131.706360	-19.501613	31.037968	-0.001240	0.002332
	468.102000	3116.968753	-19.464938	31.089571	-0.001240	0.002331
	468.643000	3093.946978	-19.415155	31.137707	-0.001234	0.002338
	469.186000	3081.280011	-19.360932	31.180539	-0.001228	0.002345
	469.730000	3051.109218	-19.329528	31.229834	-0.001225	0.002347
	470.273000	3037.152529	-19.284395	31.274781	-0.001225	0.002348
	470.814000	3011.614107	-19.245195	31.325588	-0.001226	0.002346
	471.359000	2990.392469	-19.217690	31.369179	-0.001229	0.002340
	471.901000	2959.559909	-19.139328	31.416464	-0.001238	0.002329
	472.445000	2933.755815	-19.109482	31.470113	-0.001247	0.002321
	472.989000	2904.734662	-19.055961	31.513183	-0.001248	0.002318
	473.533000	2879.168868	-19.012113	31.561600	-0.001249	0.002317
	474.077000	2840.316205	-18.968813	31.605990	-0.001250	0.002318
	474.620000	2804.511535	-18.920049	31.657740	-0.001243	0.002326
	475.163000	2770.234888	-18.874575	31.702412	-0.001236	0.002335
	475.703000	2728.390587	-18.836856	31.752175	-0.001231	0.002338
	476.247000	2692.708289	-18.786658	31.799412	-0.001230	0.002341
	476.789000	2648.778857	-18.740028	31.853486	-0.001230	0.002340
	477.329000	2603.759362	-18.694023	31.896082	-0.001233	0.002339
	477.871000	2547.332030	-18.646920	31.943412	-0.001231	0.002342
	478.415000	2491.210626	-18.588191	31.993052	-0.001229	0.002345
	478.958000	2418.300300	-18.555544	32.041060	-0.001223	0.002351
	479.501000	2207.257742	-18.519889	32.091748	-0.001222	0.002351
	480.053000	1885.621177	-18.474831	32.143089	-0.001222	0.002350
	480.595000	1684.819121	-18.431672	32.205789	-0.001219	0.002353
	481.139000	1516.231123	-18.359512	32.250108	-0.001220	0.002352
	481.682000	1371.709875	-18.317980	32.305604	-0.001220	0.002352
	482.222000	1246.569872	-18.274677	32.363772	-0.001221	0.002354
	482.766000	1127.028324	-18.250332	32.420957	-0.001221	0.002352
	483.306000	1020.301874	-18.187955	32.473710	-0.001220	0.002352
	483.849000	912.860522	-18.148983	32.534634	-0.001223	0.002350
	484.392000	815.451947	-18.089768	32.590083	-0.001222	0.002354
	484.933000	734.563398	-18.052561	32.641938	-0.001227	0.002346
	485.472000	650.517367	-18.016780	32.695879	-0.001227	0.002349
	486.016000	576.140220	-17.964595	32.749780	-0.001229	0.002347
	486.558000	506.706200	-17.924812	32.802149	-0.001229	0.002348
	487.104000	422.840505	-17.870611	32.852360	-0.001233	0.002343
	487.656000	352.640059	-17.825044	32.907638	-0.001231	0.002347
	488.196000	276.960311	-17.788462	32.961361	-0.001224	0.002352
	488.741000	236.043461	-17.726201	33.011472	-0.001223	0.002353
	489.289000	182.704390	-17.712791	33.055336	-0.001227	0.002350
	489.833000	114.985169	-17.650411	33.103869	-0.001229	0.002348
	490.376000	67.225229	-17.616753	33.158059	-0.001230	0.002348
	490.920000	11.013670	-17.562266	33.214977	-0.001227	0.002351
	491.460000	10.208601	-17.511237	33.264288	-0.001225	0.002354
	492.004000	11.090957	-17.478390	33.309881	-0.001223	0.002355
	492.545000	5.544029	-17.415797	33.351624	-0.001228	0.002352
	493.086000	7.489076	-17.385137	33.401243	-0.001227	0.002353
	493.628000	12.121446	-17.328798	33.442390	-0.001234	0.002346
	494.172000	10.324531	-17.295175	33.484250	-0.001231	0.002348
	494.717000	3.595760	-17.254641	33.527109	-0.001241	0.002338
	495.261000	7.080101	-17.180230	33.572912	-0.001240	0.002339
	495.814000	10.335802	-17.163781	33.616067	-0.001241	0.002339
	496.357000	3.658556	-17.105861	33.653966	-0.001243	0.002335
	496.902000	7.463314	-17.062915	33.696634	-0.001243	0.002338
	497.449000	0.608953	-17.020774	33.731831	-0.001245	0.002336
	497.993000	10.511307	-16.957502	33.782324	-0.001240	0.002339
	498.538000	6.294353	-16.974624	33.822177	-0.001238	0.002341
	499.081000	11.058754	-16.960040	33.860761	-0.001242	0.002339
	499.622000	4.007956	-16.968032	33.889159	-0.001245	0.002334
	500.164000	6.511722	-16.970316	33.915940	-0.001250	0.002331
	500.708000	2.755268	-16.966232	33.933243	-0.001255	0.002329
	501.250000	11.488661	-16.987541	33.955565	-0.001259	0.002327
	501.794000	8.888287	-16.969926	33.968529	-0.001263	0.002320
	502.335000	15.367486	-16.967620	33.974527	-0.001266	0.002318
	502.875000	1.180552	-16.960349	33.981796	-0.001266	0.002318
