LabVIEW Measurement	
Writer_Version	2
Reader_Version	2
Separator	Tab
Decimal_Separator	.
Multi_Headings	No
X_Columns	No
Time_Pref	Absolute
Operator	mechlab
Description	Data file
Date	2024/02/09
Time	16:13:53.8600001335144042969
***End_of_Header***	
	
Channels	6						
Samples	1	1	1	1	1	1	
Date	2024/02/09	2024/02/09	2024/02/09	2024/02/09	2024/02/09	2024/02/09	
Time	16:13:53.8600001335144042969	16:13:53.9679999351501464844	16:13:54.0770001411437988281	16:13:54.1859998703002929687	16:13:54.2940001487731933594	16:13:54.4029998779296875	
X_Dimension	Time	Time	Time	Time	Time	Time	
X0	0.0000000000000000E+0	0.0000000000000000E+0	0.0000000000000000E+0	0.0000000000000000E+0	0.0000000000000000E+0	0.0000000000000000E+0	
Delta_X	1.000000	1.000000	1.000000	1.000000	1.000000	1.000000	
***End_of_Header***							
X_Value	Untitled	Untitled 1	Untitled 2	Untitled 3	Untitled 4	Untitled 5	Comment
	0.000000	24.350451	-39.238777	22.764761	-1.950784E-6	1.399709E-5
	0.551000	164.476008	-39.247981	22.767190	-4.788504E-6	2.426713E-5
	1.096000	254.379723	-39.238642	22.764673	-7.443570E-6	3.137017E-5
	1.639000	333.149328	-39.240046	22.764248	-9.556929E-6	3.735381E-5
	2.176000	379.737087	-39.233889	22.761588	-1.069622E-5	4.151024E-5
	2.720000	420.924440	-39.231280	22.763444	-1.170507E-5	4.487366E-5
	3.262000	461.348587	-39.242445	22.763749	-1.293754E-5	4.800199E-5
	3.806000	488.297482	-39.215491	22.764406	-1.407186E-5	5.068935E-5
	4.348000	520.947878	-39.205634	22.762208	-1.492539E-5	5.291259E-5
	4.892000	540.309799	-39.203650	22.766162	-1.526953E-5	5.546841E-5
	5.436000	561.924303	-39.219410	22.766549	-1.553044E-5	5.743706E-5
	5.977000	586.702731	-39.201547	22.765739	-1.621749E-5	6.027797E-5
	6.520000	609.515179	-39.193116	22.768722	-1.665605E-5	6.175569E-5
	7.063000	621.969604	-39.192466	22.762454	-1.709214E-5	6.308113E-5
	7.607000	645.261873	-39.192166	22.765368	-1.790839E-5	6.474525E-5
	8.149000	655.883960	-39.179800	22.761617	-1.846250E-5	6.636065E-5
	8.690000	675.588840	-39.185417	22.766352	-1.863022E-5	6.811858E-5
	9.232000	687.062690	-39.172014	22.766785	-1.899425E-5	6.930394E-5
	9.775000	707.959072	-39.195651	22.768247	-2.033106E-5	7.064159E-5
	10.315000	728.652578	-39.178332	22.762222	-2.082677E-5	7.223508E-5
	10.859000	740.163461	-39.159596	22.769212	-2.094853E-5	7.374938E-5
	11.406000	756.974921	-39.160591	22.766608	-2.113737E-5	7.532339E-5
	11.949000	775.488299	-39.151197	22.765705	-2.208531E-5	7.685597E-5
	12.492000	787.693152	-39.145179	22.769139	-2.257233E-5	7.839831E-5
	13.034000	800.443842	-39.137128	22.764562	-2.345815E-5	7.946918E-5
	13.576000	817.567670	-39.135350	22.768130	-2.370911E-5	8.098229E-5
	14.119000	836.006981	-39.141449	22.764034	-2.374762E-5	8.198981E-5
	14.662000	841.890428	-39.142064	22.762649	-2.427439E-5	8.300099E-5
	15.201000	863.814080	-39.122688	22.765748	-2.485707E-5	8.419248E-5
	15.746000	880.516051	-39.110515	22.767244	-2.531675E-5	8.550702E-5
	16.291000	897.712335	-39.125731	22.766182	-2.584227E-5	8.682644E-5
	16.836000	906.453779	-39.112676	22.767153	-2.618890E-5	8.808007E-5
	17.379000	917.032392	-39.105288	22.766196	-2.685357E-5	8.943361E-5
	17.922000	932.887430	-39.095814	22.764385	-2.660261E-5	9.061293E-5
	18.466000	944.779916	-39.101405	22.768001	-2.698650E-5	9.177033E-5
	19.015000	965.154615	-39.091093	22.767012	-2.749339E-5	9.355029E-5
	19.559000	973.791400	-39.084794	22.766679	-2.827608E-5	9.458951E-5
	20.104000	991.053700	-39.081902	22.767095	-2.868731E-5	9.662533E-5
	20.646000	999.923955	-39.081204	22.765576	-2.920910E-5	9.820550E-5
	21.188000	1025.161273	-39.084743	22.765472	-2.945012E-5	9.954201E-5
	21.734000	1033.467980	-39.068577	22.763493	-2.989489E-5	0.000101
	22.275000	1045.230045	-39.070309	22.765309	-3.032723E-5	0.000103
	22.819000	1055.898826	-39.060181	22.767573	-3.029866E-5	0.000104
	23.364000	1079.638714	-39.055457	22.765847	-3.038562E-5	0.000106
	23.905000	1098.472510	-39.051847	22.766401	-3.029741E-5	0.000108
	24.446000	1112.086235	-39.041800	22.766822	-3.054713E-5	0.000110
	24.989000	1129.277688	-39.047989	22.766992	-3.099935E-5	0.000111
	25.533000	1150.438135	-39.029157	22.767694	-3.117204E-5	0.000113
	26.076000	1163.195266	-39.036225	22.767690	-3.172986E-5	0.000115
	26.627000	1178.961747	-39.030719	22.765771	-3.226780E-5	0.000117
	27.170000	1190.619153	-39.027901	22.766294	-3.280326E-5	0.000118
	27.716000	1216.928824	-39.036335	22.766413	-3.269766E-5	0.000120
	28.261000	1226.673385	-39.008630	22.772550	-3.292128E-5	0.000122
	28.807000	1250.191075	-39.015808	22.767954	-3.347786E-5	0.000123
	29.351000	1270.923224	-39.013226	22.771056	-3.378721E-5	0.000125
	29.893000	1285.340409	-38.975471	22.767780	-3.443571E-5	0.000127
	30.439000	1299.202096	-38.995243	22.766684	-3.515007E-5	0.000129
	30.981000	1317.833014	-38.991089	22.772672	-3.538115E-5	0.000131
	31.523000	1334.353040	-38.983425	22.765095	-3.572403E-5	0.000132
	32.065000	1353.958092	-38.975226	22.770445	-3.616383E-5	0.000135
	32.610000	1372.070546	-38.980449	22.765829	-3.678749E-5	0.000136
	33.150000	1399.468671	-38.984011	22.770027	-3.713286E-5	0.000139
	33.692000	1415.410658	-38.954429	22.765196	-3.695644E-5	0.000141
	34.241000	1431.375186	-38.962567	22.767650	-3.813295E-5	0.000142
	34.783000	1449.028750	-38.965175	22.768268	-3.887587E-5	0.000144
	35.323000	1473.200157	-38.953418	22.762737	-3.944610E-5	0.000146
	35.868000	1498.811028	-38.949982	22.768824	-3.997534E-5	0.000147
	36.411000	1514.883436	-38.941309	22.765782	-4.074062E-5	0.000149
	36.953000	1539.471869	-38.955456	22.769880	-4.132079E-5	0.000151
	37.499000	1555.895288	-38.941126	22.769465	-4.221652E-5	0.000152
	38.039000	1566.974654	-38.934444	22.767787	-4.316069E-5	0.000155
	38.583000	1595.393608	-38.927159	22.770751	-4.322778E-5	0.000157
	39.126000	1613.981054	-38.920690	22.768252	-4.394212E-5	0.000159
	39.671000	1637.725774	-38.917096	22.766494	-4.489871E-5	0.000161
	40.211000	1655.231206	-38.912211	22.773943	-4.560063E-5	0.000162
	40.755000	1680.144888	-38.905528	22.768959	-4.618203E-5	0.000165
	41.299000	1701.062204	-38.895610	22.768742	-4.713738E-5	0.000166
	41.847000	1721.018268	-38.896669	22.767420	-4.731006E-5	0.000168
	42.390000	1740.054942	-38.905055	22.771083	-4.805794E-5	0.000171
	42.931000	1766.433851	-38.892963	22.770004	-4.898844E-5	0.000173
	43.472000	1782.736509	-38.884409	22.769494	-4.976240E-5	0.000176
	44.017000	1805.758277	-38.885575	22.768347	-5.045313E-5	0.000179
	44.568000	1834.117657	-38.881031	22.767581	-5.092521E-5	0.000180
	45.111000	1858.831682	-38.868649	22.771537	-5.192899E-5	0.000183
	45.656000	1886.989795	-38.874752	22.766040	-5.256506E-5	0.000185
	46.199000	1908.895737	-38.848300	22.768112	-5.358747E-5	0.000187
	46.743000	1928.362319	-38.860988	22.768710	-5.420987E-5	0.000189
	47.286000	1956.615431	-38.854415	22.769640	-5.467946E-5	0.000192
	47.831000	1975.705240	-38.854927	22.769367	-5.551304E-5	0.000195
	48.377000	1995.139619	-38.843350	22.769932	-5.606462E-5	0.000197
	48.920000	2025.347440	-38.851643	22.765146	-5.686218E-5	0.000199
	49.463000	2050.315868	-38.836543	22.771294	-5.743736E-5	0.000202
	50.003000	2068.893653	-38.846580	22.769689	-5.812187E-5	0.000204
	50.547000	2105.131445	-38.834942	22.774033	-5.892811E-5	0.000207
	51.089000	2122.925093	-38.833251	22.767420	-6.014929E-5	0.000209
	51.635000	2151.041343	-38.814960	22.769854	-6.066111E-5	0.000211
	52.177000	2183.397090	-38.815768	22.768223	-6.151456E-5	0.000214
	52.718000	2200.520920	-38.810300	22.773073	-6.263386E-5	0.000216
	53.257000	2231.462965	-38.807115	22.770592	-6.357550E-5	0.000218
	53.802000	2256.866131	-38.805006	22.773060	-6.447491E-5	0.000220
	54.341000	2285.809993	-38.805238	22.773886	-6.584018E-5	0.000223
	54.881000	2311.665609	-38.807872	22.770717	-6.626503E-5	0.000226
	55.426000	2332.700468	-38.789796	22.766979	-6.752967E-5	0.000228
	55.974000	2357.926519	-38.790073	22.773324	-6.816571E-5	0.000232
	56.516000	2384.907622	-38.773276	22.770629	-6.885268E-5	0.000234
	57.057000	2421.018215	-38.770539	22.769413	-7.008749E-5	0.000237
	57.602000	2438.494666	-38.765422	22.775039	-7.090490E-5	0.000239
	58.146000	2470.662028	-38.766665	22.772753	-7.227014E-5	0.000242
	58.692000	2494.459887	-38.753584	22.771552	-7.311736E-5	0.000244
	59.244000	2537.445775	-38.750834	22.770131	-7.361054E-5	0.000247
	59.786000	2556.566179	-38.755429	22.773187	-7.457577E-5	0.000250
	60.330000	2584.299219	-38.741537	22.772065	-7.571988E-5	0.000253
	60.873000	2607.665560	-38.751017	22.770956	-7.677455E-5	0.000255
	61.420000	2635.139367	-38.738368	22.772758	-7.706151E-5	0.000258
	61.963000	2661.365317	-38.727564	22.775166	-7.845779E-5	0.000261
	62.504000	2698.680296	-38.732674	22.772368	-7.959319E-5	0.000264
	63.046000	2723.230090	-38.725332	22.774775	-7.996959E-5	0.000267
	63.599000	2752.819621	-38.729283	22.772162	-8.047518E-5	0.000270
	64.137000	2782.140259	-38.715800	22.772775	-8.130997E-5	0.000273
	64.682000	2803.485877	-38.705237	22.775427	-8.353853E-5	0.000276
	65.225000	2843.673345	-38.720650	22.772603	-8.421927E-5	0.000279
	65.764000	2869.485490	-38.710834	22.775168	-8.493728E-5	0.000281
	66.305000	2897.442340	-38.709494	22.771448	-8.599068E-5	0.000284
	66.844000	2925.486138	-38.694552	22.773841	-8.694346E-5	0.000286
	67.386000	2960.989713	-38.683851	22.775616	-8.830866E-5	0.000290
	67.929000	2980.058594	-38.680064	22.778264	-9.038937E-5	0.000293
	68.475000	3020.147846	-38.672409	22.777807	-9.094340E-5	0.000296
	69.018000	3040.471026	-38.672976	22.770313	-9.151605E-5	0.000299
	69.559000	3070.319792	-38.666252	22.771756	-9.308869E-5	0.000301
	70.102000	3100.983288	-38.663215	22.780520	-9.463399E-5	0.000304
	70.651000	3144.136636	-38.672441	22.767940	-9.557557E-5	0.000307
	71.194000	3169.262864	-38.662365	22.774009	-9.672212E-5	0.000310
	71.739000	3200.316014	-38.660346	22.779456	-9.814319E-5	0.000314
	72.282000	3228.617437	-38.654694	22.777731	-9.959158E-5	0.000317
	72.824000	3262.361131	-38.642879	22.774334	-0.000100	0.000320
	73.367000	3285.812814	-38.634074	22.776026	-0.000101	0.000323
	73.913000	3315.854798	-38.639877	22.774920	-0.000103	0.000326
	74.455000	3354.061800	-38.623727	22.772263	-0.000104	0.000329
	74.997000	3383.437186	-38.612521	22.779290	-0.000105	0.000331
	75.539000	3413.907468	-38.636432	22.775609	-0.000106	0.000335
	76.079000	3449.232321	-38.611947	22.774226	-0.000108	0.000337
	76.631000	3483.381773	-38.608205	22.776290	-0.000108	0.000340
	77.174000	3503.865969	-38.608808	22.777277	-0.000110	0.000345
	77.716000	3543.600996	-38.597598	22.777670	-0.000111	0.000348
	78.259000	3570.355076	-38.592078	22.778540	-0.000112	0.000351
	78.801000	3614.762729	-38.596525	22.772223	-0.000114	0.000354
	79.343000	3642.906361	-38.592722	22.778203	-0.000115	0.000358
	79.886000	3671.008129	-38.571964	22.773712	-0.000116	0.000360
	80.429000	3708.849633	-38.586897	22.779895	-0.000117	0.000364
	80.970000	3732.175728	-38.566103	22.778601	-0.000118	0.000367
	81.512000	3768.754883	-38.571871	22.778174	-0.000119	0.000370
	82.054000	3795.542778	-38.568763	22.778889	-0.000120	0.000374
	82.597000	3830.568149	-38.562467	22.777195	-0.000122	0.000378
	83.144000	3864.563031	-38.562744	22.778548	-0.000123	0.000381
	83.687000	3904.050100	-38.560715	22.776921	-0.000124	0.000385
	84.231000	3939.561734	-38.546243	22.776142	-0.000125	0.000389
	84.778000	3973.257131	-38.552565	22.776659	-0.000126	0.000393
	85.319000	3998.723103	-38.540534	22.776475	-0.000128	0.000397
	85.860000	4038.978211	-38.546121	22.780570	-0.000129	0.000400
	86.404000	4070.978131	-38.533529	22.775129	-0.000129	0.000404
	86.945000	4106.576715	-38.531439	22.778781	-0.000131	0.000407
	87.490000	4136.634807	-38.516465	22.776297	-0.000132	0.000411
	88.040000	4182.262953	-38.508685	22.779459	-0.000133	0.000414
	88.580000	4208.464762	-38.507773	22.777826	-0.000134	0.000418
	89.125000	4240.892981	-38.501410	22.780699	-0.000136	0.000422
	89.669000	4279.075841	-38.500325	22.777743	-0.000137	0.000426
	90.211000	4309.204782	-38.500273	22.779702	-0.000138	0.000430
	90.758000	4343.370343	-38.494010	22.780950	-0.000140	0.000434
	91.301000	4384.045702	-38.489781	22.778891	-0.000142	0.000437
	91.845000	4422.036957	-38.479508	22.780771	-0.000143	0.000441
	92.387000	4449.615437	-38.471342	22.777979	-0.000143	0.000445
	92.924000	4482.251367	-38.472788	22.781378	-0.000145	0.000449
	93.471000	4526.010146	-38.474279	22.777772	-0.000146	0.000453
	94.011000	4558.844124	-38.471783	22.782844	-0.000148	0.000456
	94.553000	4594.821097	-38.465381	22.784534	-0.000149	0.000461
	95.093000	4634.055383	-38.455794	22.784702	-0.000151	0.000464
	95.638000	4664.239072	-38.447415	22.782865	-0.000153	0.000468
	96.177000	4706.408645	-38.443048	22.779726	-0.000153	0.000473
	96.722000	4737.938412	-38.444310	22.779796	-0.000155	0.000476
	97.264000	4783.104457	-38.443818	22.782871	-0.000157	0.000481
	97.810000	4808.718569	-38.432402	22.780192	-0.000158	0.000484
	98.353000	4858.212673	-38.431007	22.782068	-0.000159	0.000489
	98.890000	4891.837234	-38.414197	22.786494	-0.000161	0.000493
	99.436000	4930.509586	-38.419449	22.783674	-0.000163	0.000498
	99.996000	4974.540486	-38.428833	22.785013	-0.000164	0.000502
	100.541000	5006.978375	-38.427858	22.780892	-0.000166	0.000506
	101.085000	5039.788207	-38.415182	22.781894	-0.000167	0.000510
	101.628000	5083.954361	-38.397876	22.780726	-0.000169	0.000515
	102.173000	5122.341720	-38.398260	22.781549	-0.000171	0.000519
	102.717000	5159.977145	-38.397564	22.783402	-0.000172	0.000523
	103.258000	5198.844328	-38.373009	22.781552	-0.000173	0.000527
	103.797000	5230.341898	-38.389542	22.782811	-0.000175	0.000532
	104.340000	5266.809972	-38.382338	22.782156	-0.000176	0.000537
	104.885000	5310.800624	-38.367892	22.782539	-0.000177	0.000541
	105.428000	5364.246023	-38.355552	22.784406	-0.000179	0.000546
	105.969000	5400.672236	-38.368162	22.780353	-0.000180	0.000549
	106.513000	5430.756105	-38.353227	22.778945	-0.000182	0.000554
	107.055000	5474.294311	-38.354103	22.780325	-0.000183	0.000559
	107.602000	5505.822477	-38.344477	22.786346	-0.000185	0.000562
	108.147000	5560.053629	-38.349192	22.784885	-0.000186	0.000567
	108.686000	5581.737395	-38.344445	22.788713	-0.000188	0.000572
	109.229000	5632.233022	-38.336838	22.782486	-0.000190	0.000574
	109.771000	5670.702508	-38.341653	22.783254	-0.000191	0.000579
	110.312000	5712.055756	-38.342645	22.785288	-0.000193	0.000583
	110.854000	5753.576461	-38.324646	22.787336	-0.000195	0.000588
	111.397000	5784.143376	-38.314673	22.786801	-0.000196	0.000592
	111.936000	5823.318107	-38.312548	22.790436	-0.000198	0.000596
	112.479000	5873.019939	-38.305550	22.780364	-0.000200	0.000601
	113.022000	5921.018244	-38.309981	22.786956	-0.000202	0.000605
	113.568000	5954.266047	-38.305489	22.786359	-0.000203	0.000610
	114.107000	5993.706453	-38.306764	22.785888	-0.000205	0.000615
	114.649000	6027.277896	-38.290920	22.783633	-0.000207	0.000619
	115.191000	6074.081480	-38.281391	22.785760	-0.000207	0.000618
	115.735000	6058.873696	-38.283932	22.783301	-0.000207	0.000618
	116.279000	6060.462906	-38.283024	22.782628	-0.000207	0.000619
	116.817000	6073.482507	-38.279275	22.785628	-0.000207	0.000621
	117.359000	6040.444020	-38.276403	22.787607	-0.000205	0.000612
	117.899000	5957.888865	-38.296707	22.785415	-0.000202	0.000605
	118.444000	5883.099422	-38.296459	22.784872	-0.000200	0.000599
	118.985000	5815.650615	-38.293271	22.787302	-0.000197	0.000593
	119.528000	5747.664023	-38.292781	22.784567	-0.000196	0.000588
	120.069000	5690.375209	-38.309359	22.782873	-0.000194	0.000581
	120.613000	5628.341312	-38.292533	22.783940	-0.000192	0.000576
	121.152000	5566.735713	-38.300578	22.783259	-0.000189	0.000570
	121.694000	5522.057526	-38.307991	22.786462	-0.000188	0.000565
	122.235000	5451.465735	-38.301189	22.786673	-0.000187	0.000559
	122.774000	5397.469666	-38.314760	22.784309	-0.000185	0.000553
	123.315000	5330.652048	-38.309166	22.784908	-0.000182	0.000548
	123.859000	5274.215009	-38.317932	22.782454	-0.000181	0.000543
	124.410000	5210.669200	-38.307714	22.786288	-0.000179	0.000537
	124.951000	5146.332814	-38.324279	22.788280	-0.000176	0.000531
	125.497000	5084.601637	-38.318563	22.782615	-0.000175	0.000525
	126.042000	5012.799033	-38.319825	22.779475	-0.000172	0.000519
	126.585000	4971.933669	-38.310354	22.778854	-0.000170	0.000514
	127.127000	4902.277385	-38.333966	22.783381	-0.000168	0.000508
	127.668000	4839.634874	-38.319136	22.781997	-0.000166	0.000502
	128.209000	4787.324635	-38.314860	22.784095	-0.000164	0.000497
	128.751000	4732.116145	-38.328237	22.779240	-0.000162	0.000492
	129.295000	4667.138934	-38.328862	22.782602	-0.000161	0.000486
	129.837000	4607.700608	-38.333760	22.780200	-0.000158	0.000479
	130.379000	4550.873930	-38.322524	22.782353	-0.000157	0.000474
	130.919000	4490.017073	-38.330356	22.776493	-0.000155	0.000467
	131.463000	4425.485877	-38.345491	22.779435	-0.000154	0.000462
	132.003000	4374.673076	-38.321097	22.784138	-0.000152	0.000456
	132.546000	4312.940306	-38.329812	22.781876	-0.000150	0.000450
	133.088000	4256.118465	-38.339180	22.779131	-0.000148	0.000443
	133.647000	4189.824171	-38.340526	22.780362	-0.000146	0.000438
	134.187000	4125.088494	-38.332066	22.779519	-0.000144	0.000432
	134.732000	4057.821678	-38.342213	22.779124	-0.000142	0.000426
	135.274000	4004.329610	-38.338062	22.778609	-0.000141	0.000420
	135.817000	3948.921477	-38.351636	22.783272	-0.000139	0.000414
	136.362000	3893.640546	-38.352473	22.780018	-0.000137	0.000408
	136.904000	3829.072329	-38.345784	22.782270	-0.000135	0.000403
	137.447000	3767.737275	-38.361886	22.777506	-0.000133	0.000396
	137.994000	3706.448915	-38.352367	22.776475	-0.000132	0.000390
	138.538000	3643.965833	-38.357046	22.778269	-0.000130	0.000383
	139.080000	3584.556509	-38.355342	22.777514	-0.000128	0.000378
	139.622000	3521.432593	-38.360920	22.782763	-0.000126	0.000373
	140.163000	3471.304115	-38.356647	22.781950	-0.000123	0.000368
	140.708000	3400.234163	-38.370591	22.777440	-0.000121	0.000361
	141.254000	3345.652040	-38.363342	22.780198	-0.000120	0.000356
	141.796000	3284.146319	-38.364565	22.779646	-0.000118	0.000350
	142.340000	3229.881396	-38.382899	22.779391	-0.000117	0.000344
	142.886000	3171.911543	-38.374571	22.775773	-0.000115	0.000339
	143.427000	3119.839631	-38.382268	22.776351	-0.000116	0.000344
	143.971000	3190.305777	-38.365168	22.775118	-0.000118	0.000351
	144.514000	3260.638282	-38.379978	22.776339	-0.000120	0.000356
	145.051000	3335.139439	-38.367750	22.773794	-0.000122	0.000363
	145.595000	3392.455578	-38.356054	22.774007	-0.000126	0.000376
	146.138000	3550.617984	-38.359307	22.777086	-0.000131	0.000392
	146.682000	3706.468237	-38.362775	22.776537	-0.000136	0.000409
	147.226000	3883.667340	-38.355710	22.773490	-0.000141	0.000426
	147.779000	4040.182595	-38.344210	22.775627	-0.000145	0.000441
	148.320000	4200.085593	-38.339679	22.775398	-0.000151	0.000456
	148.864000	4361.532723	-38.327677	22.779855	-0.000155	0.000472
	149.411000	4515.265680	-38.328755	22.777622	-0.000160	0.000486
	149.955000	4677.542051	-38.331866	22.777081	-0.000165	0.000501
	150.500000	4816.237925	-38.317909	22.784573	-0.000170	0.000514
	151.039000	4962.807393	-38.328237	22.780021	-0.000174	0.000527
	151.579000	5109.560425	-38.322273	22.783117	-0.000178	0.000540
	152.124000	5258.578933	-38.308371	22.780230	-0.000183	0.000555
	152.666000	5393.170591	-38.309050	22.779416	-0.000188	0.000568
	153.205000	5534.157734	-38.299541	22.786040	-0.000191	0.000580
	153.748000	5675.186750	-38.288830	22.781787	-0.000195	0.000593
	154.298000	5797.290178	-38.294417	22.781771	-0.000200	0.000605
	154.840000	5926.020952	-38.298687	22.783043	-0.000203	0.000616
	155.387000	6026.364946	-38.286076	22.784774	-0.000206	0.000625
	155.934000	6118.568070	-38.273527	22.785417	-0.000209	0.000630
	156.477000	6161.715025	-38.267827	22.786827	-0.000210	0.000635
	157.023000	6212.125328	-38.268719	22.784188	-0.000212	0.000641
	157.565000	6277.435880	-38.251951	22.782800	-0.000214	0.000645
	158.107000	6308.832026	-38.252331	22.786033	-0.000216	0.000650
	158.650000	6355.070456	-38.266474	22.783021	-0.000217	0.000655
	159.192000	6404.447053	-38.249751	22.785491	-0.000219	0.000660
	159.735000	6451.408439	-38.248479	22.787927	-0.000221	0.000665
	160.279000	6498.527619	-38.237678	22.787085	-0.000223	0.000671
	160.819000	6556.803472	-38.231624	22.784797	-0.000225	0.000676
	161.361000	6596.000759	-38.231466	22.786510	-0.000227	0.000682
	161.902000	6633.879340	-38.234100	22.786681	-0.000230	0.000685
	162.444000	6692.056978	-38.228001	22.785451	-0.000231	0.000691
	162.989000	6740.718680	-38.215938	22.785682	-0.000233	0.000696
	163.532000	6783.688532	-38.210299	22.788111	-0.000236	0.000700
	164.073000	6820.813571	-38.212135	22.784992	-0.000237	0.000705
	164.614000	6867.733103	-38.202335	22.785802	-0.000239	0.000711
	165.172000	6918.326981	-38.207195	22.788756	-0.000242	0.000715
	165.711000	6972.295716	-38.202016	22.784349	-0.000244	0.000720
	166.255000	7021.628855	-38.186301	22.786657	-0.000245	0.000726
	166.795000	7058.016453	-38.188845	22.790704	-0.000247	0.000731
	167.336000	7113.260426	-38.184540	22.786636	-0.000249	0.000736
	167.881000	7157.439504	-38.165636	22.789473	-0.000250	0.000741
	168.426000	7198.340332	-38.157038	22.787293	-0.000253	0.000747
	168.966000	7237.961100	-38.169217	22.791493	-0.000255	0.000752
	169.522000	7286.304008	-38.159914	22.788168	-0.000256	0.000756
	170.064000	7326.630020	-38.156697	22.786025	-0.000259	0.000761
	170.605000	7373.944050	-38.160297	22.784842	-0.000261	0.000767
	171.145000	7428.209066	-38.146511	22.786344	-0.000263	0.000773
	171.687000	7473.289831	-38.152137	22.792181	-0.000265	0.000777
	172.232000	7526.042926	-38.138927	22.786689	-0.000267	0.000783
	172.775000	7565.768360	-38.137526	22.788792	-0.000269	0.000788
	173.319000	7614.304495	-38.136090	22.790589	-0.000271	0.000794
	173.856000	7664.951527	-38.126245	22.791363	-0.000273	0.000799
	174.404000	7712.660052	-38.123180	22.790494	-0.000275	0.000804
	174.944000	7753.063360	-38.120555	22.785120	-0.000277	0.000810
	175.483000	7801.481960	-38.109525	22.792067	-0.000279	0.000816
	176.027000	7849.641328	-38.111319	22.789366	-0.000282	0.000822
	176.570000	7898.710428	-38.104579	22.790011	-0.000283	0.000826
	177.110000	7935.764644	-38.101111	22.791843	-0.000286	0.000832
	177.664000	7997.845311	-38.107938	22.790463	-0.000288	0.000838
	178.205000	8035.255371	-38.087705	22.791439	-0.000291	0.000844
	178.750000	8080.679113	-38.083199	22.792096	-0.000293	0.000848
	179.306000	8143.667906	-38.085180	22.792039	-0.000295	0.000854
	179.845000	8189.165719	-38.086529	22.791885	-0.000297	0.000859
	180.389000	8234.283538	-38.072443	22.791212	-0.000300	0.000866
	180.931000	8284.379921	-38.070060	22.794786	-0.000302	0.000871
	181.473000	8323.636822	-38.072385	22.794992	-0.000304	0.000877
	182.016000	8365.924013	-38.056873	22.789774	-0.000307	0.000883
	182.569000	8422.322502	-38.054951	22.793189	-0.000310	0.000888
	183.109000	8482.991092	-38.046098	22.791479	-0.000312	0.000894
	183.652000	8513.942879	-38.038588	22.792526	-0.000314	0.000899
	184.195000	8576.139499	-38.048726	22.793402	-0.000317	0.000905
	184.737000	8620.907929	-38.042498	22.791886	-0.000320	0.000910
	185.282000	8671.084832	-38.033835	22.794218	-0.000322	0.000916
	185.821000	8720.567765	-38.020033	22.794361	-0.000324	0.000921
	186.363000	8764.368502	-38.022654	22.796171	-0.000326	0.000927
	186.904000	8817.356722	-38.011360	22.798040	-0.000329	0.000932
	187.444000	8861.667877	-38.014822	22.793633	-0.000331	0.000939
	187.983000	8920.803629	-38.023079	22.798248	-0.000334	0.000945
	188.528000	8956.151117	-38.010401	22.796134	-0.000336	0.000951
	189.080000	9012.539967	-38.001590	22.789202	-0.000338	0.000957
	189.626000	9067.838752	-37.995011	22.793298	-0.000341	0.000963
	190.168000	9119.012349	-37.985633	22.789407	-0.000343	0.000969
	190.710000	9165.617970	-37.983257	22.794192	-0.000346	0.000975
	191.254000	9202.693149	-37.997941	22.797863	-0.000348	0.000980
	191.796000	9264.817342	-37.980465	22.797599	-0.000351	0.000987
	192.337000	9309.886890	-37.972794	22.793369	-0.000353	0.000993
	192.877000	9365.430429	-37.969673	22.794474	-0.000356	0.000999
	193.419000	9409.894565	-37.965738	22.797168	-0.000358	0.001005
	193.961000	9459.456421	-37.957887	22.796897	-0.000361	0.001011
	194.502000	9506.807550	-37.946970	22.801216	-0.000364	0.001017
	195.046000	9561.618481	-37.956586	22.800100	-0.000366	0.001023
	195.597000	9616.442294	-37.937805	22.797694	-0.000369	0.001030
	196.142000	9665.492132	-37.940591	22.799865	-0.000371	0.001036
	196.686000	9709.104512	-37.934488	22.797573	-0.000374	0.001042
	197.231000	9768.412585	-37.926621	22.799541	-0.000376	0.001049
	197.772000	9817.372260	-37.922441	22.798960	-0.000379	0.001055
	198.317000	9864.230697	-37.930704	22.799097	-0.000382	0.001062
	198.857000	9924.643337	-37.921484	22.798110	-0.000385	0.001067
	199.399000	9965.988641	-37.927329	22.799628	-0.000387	0.001073
	199.940000	10019.931722	-37.901051	22.798523	-0.000391	0.001079
	200.481000	10070.982986	-37.915192	22.800832	-0.000393	0.001086
	201.020000	10125.396233	-37.895976	22.800040	-0.000396	0.001092
	201.565000	10170.308017	-37.899631	22.800184	-0.000399	0.001099
	202.104000	10225.197872	-37.881874	22.802283	-0.000402	0.001105
	202.648000	10265.620573	-37.894459	22.798061	-0.000405	0.001112
	203.196000	10334.016333	-37.877466	22.801066	-0.000408	0.001119
	203.735000	10380.681572	-37.875002	22.805504	-0.000411	0.001125
	204.279000	10440.387382	-37.880986	22.800274	-0.000414	0.001132
	204.828000	10487.809393	-37.876777	22.800095	-0.000416	0.001138
	205.375000	10547.796984	-37.863193	22.801285	-0.000420	0.001145
	205.918000	10598.651831	-37.869892	22.804660	-0.000423	0.001152
	206.464000	10644.323620	-37.847063	22.801705	-0.000426	0.001158
	207.007000	10692.198091	-37.842838	22.806629	-0.000429	0.001165
	207.551000	10744.811222	-37.847452	22.805225	-0.000432	0.001173
	208.091000	10801.539890	-37.841092	22.800029	-0.000434	0.001180
	208.631000	10858.477879	-37.836587	22.801428	-0.000437	0.001186
	209.171000	10915.080961	-37.829757	22.800755	-0.000440	0.001194
	209.709000	10963.085864	-37.821583	22.805908	-0.000443	0.001201
	210.256000	11018.957944	-37.832723	22.805116	-0.000446	0.001207
	210.797000	11073.925126	-37.813880	22.807244	-0.000450	0.001215
	211.341000	11120.393955	-37.821474	22.806344	-0.000452	0.001221
	211.881000	11169.525969	-37.812238	22.807119	-0.000456	0.001228
	212.425000	11223.121312	-37.789918	22.805481	-0.000458	0.001234
	212.968000	11266.434260	-37.804474	22.806877	-0.000461	0.001242
	213.509000	11328.487708	-37.799225	22.804455	-0.000466	0.001257
	214.051000	11493.213797	-37.800194	22.806697	-0.000474	0.001274
	214.593000	11626.485681	-37.778640	22.804956	-0.000481	0.001289
	215.137000	11743.451619	-37.767244	22.802367	-0.000487	0.001303
	215.680000	11843.322631	-37.760694	22.801175	-0.000494	0.001317
	216.224000	11949.428144	-37.742589	22.805737	-0.000501	0.001332
	216.765000	12059.637935	-37.741175	22.803074	-0.000508	0.001345
	217.308000	12173.035830	-37.730204	22.803388	-0.000515	0.001362
	217.855000	12264.228183	-37.718462	22.809667	-0.000523	0.001376
	218.396000	12377.548813	-37.704708	22.803839	-0.000530	0.001389
	218.941000	12482.952355	-37.704476	22.806719	-0.000537	0.001405
	219.483000	12604.059689	-37.693457	22.806400	-0.000544	0.001421
	220.022000	12704.549079	-37.686964	22.811289	-0.000552	0.001436
	220.568000	12819.078980	-37.675722	22.807571	-0.000559	0.001451
	221.113000	12928.103793	-37.672937	22.811671	-0.000568	0.001467
	221.657000	13033.644255	-37.661495	22.814060	-0.000576	0.001484
	222.203000	13139.793364	-37.653969	22.814946	-0.000584	0.001499
	222.745000	13252.354102	-37.651415	22.815698	-0.000592	0.001514
	223.288000	13369.141496	-37.629472	22.813685	-0.000599	0.001530
	223.830000	13469.643845	-37.624046	22.818565	-0.000609	0.001546
	224.372000	13581.285225	-37.617145	22.817868	-0.000616	0.001563
	224.911000	13697.140382	-37.604389	22.817145	-0.000625	0.001580
	225.452000	13797.085655	-37.589369	22.814092	-0.000633	0.001596
	225.989000	13904.796695	-37.597684	22.817907	-0.000642	0.001611
	226.530000	14009.937946	-37.582639	22.815699	-0.000651	0.001628
	227.073000	14132.311050	-37.562141	22.818034	-0.000660	0.001646
	227.618000	14247.006967	-37.567867	22.814094	-0.000669	0.001663
	228.162000	14345.633584	-37.548017	22.818585	-0.000678	0.001680
	228.707000	14456.210760	-37.536981	22.821919	-0.000687	0.001698
	229.251000	14583.490056	-37.526889	22.822679	-0.000696	0.001715
	229.792000	14692.230077	-37.527420	22.821613	-0.000706	0.001734
	230.336000	14792.895197	-37.510030	22.821280	-0.000716	0.001752
	230.879000	14917.157117	-37.517488	22.825297	-0.000725	0.001771
	231.420000	15015.614743	-37.507048	22.821124	-0.000736	0.001788
	231.960000	15123.371016	-37.489439	22.826969	-0.000745	0.001807
	232.502000	15236.927073	-37.487729	22.822919	-0.000756	0.001825
	233.040000	15357.624177	-37.470655	22.829292	-0.000766	0.001843
	233.584000	15459.695039	-37.471251	22.829126	-0.000776	0.001863
	234.127000	15571.388193	-37.448702	22.828059	-0.000787	0.001881
	234.667000	15670.675125	-37.447540	22.829977	-0.000797	0.001901
	235.211000	15792.966345	-37.425706	22.827015	-0.000809	0.001920
	235.756000	15911.948716	-37.433879	22.826510	-0.000820	0.001941
	236.299000	16024.092775	-37.416634	22.830221	-0.000831	0.001961
	236.841000	16126.862528	-37.405521	22.829078	-0.000842	0.001980
	237.384000	16232.765656	-37.397718	22.830245	-0.000854	0.002000
	237.926000	16354.552982	-37.387536	22.828337	-0.000866	0.002022
	238.475000	16468.060906	-37.376802	22.827948	-0.000878	0.002043
	239.020000	16584.996869	-37.372387	22.831711	-0.000890	0.002064
	239.564000	16683.998929	-37.363180	22.830046	-0.000902	0.002084
	240.109000	16789.003664	-37.363618	22.826336	-0.000914	0.002105
	240.651000	16900.882174	-37.340925	22.828579	-0.000927	0.002128
	241.194000	17018.488027	-37.325374	22.832521	-0.000941	0.002150
	241.744000	17122.853577	-37.319857	22.833548	-0.000954	0.002171
	242.286000	17234.334426	-37.309700	22.834198	-0.000967	0.002194
	242.828000	17335.064270	-37.312080	22.834846	-0.000980	0.002217
	243.376000	17440.017572	-37.293125	22.834793	-0.000993	0.002240
	243.918000	17569.408256	-37.291084	22.832934	-0.001007	0.002264
	244.459000	17673.706257	-37.270470	22.833200	-0.001022	0.002288
	245.000000	17785.401340	-37.267070	22.831867	-0.001035	0.002310
	245.543000	17887.897603	-37.266600	22.833160	-0.001050	0.002335
	246.087000	17999.344755	-37.253071	22.835479	-0.001064	0.002359
	246.628000	18107.624741	-37.240676	22.835718	-0.001080	0.002383
	247.172000	18208.027843	-37.242991	22.835551	-0.001095	0.002407
	247.714000	18311.329248	-37.219219	22.837554	-0.001109	0.002431
	248.260000	18413.299064	-37.227334	22.836176	-0.001125	0.002459
	248.801000	18533.175487	-37.206476	22.838535	-0.001141	0.002484
	249.344000	18642.619701	-37.186742	22.838939	-0.001158	0.002509
	249.893000	18740.923231	-37.184900	22.839742	-0.001174	0.002536
	250.436000	18860.450305	-37.186778	22.836945	-0.001191	0.002562
	250.974000	18955.406340	-37.171095	22.839963	-0.001207	0.002589
	251.516000	19069.270514	-37.157959	22.836155	-0.001224	0.002615
	252.057000	19181.584123	-37.137272	22.838779	-0.001242	0.002644
	252.599000	19274.042842	-37.158609	22.839631	-0.001260	0.002671
	253.143000	19381.389133	-37.134811	22.842452	-0.001277	0.002699
	253.684000	19483.157840	-37.130773	22.838438	-0.001295	0.002728
	254.227000	19590.259420	-37.117695	22.841592	-0.001314	0.002757
	254.768000	19685.152763	-37.106936	22.842098	-0.001333	0.002786
	255.314000	19798.653165	-37.100756	22.841505	-0.001352	0.002815
	255.851000	19908.363262	-37.097472	22.843742	-0.001371	0.002846
	256.395000	20001.205301	-37.078179	22.840006	-0.001391	0.002876
	256.936000	20100.441316	-37.072189	22.841945	-0.001411	0.002907
	257.476000	20211.368748	-37.060080	22.841731	-0.001431	0.002938
	258.016000	20302.805157	-37.051028	22.847077	-0.001451	0.002970
	258.555000	20405.973241	-37.046922	22.844312	-0.001472	0.003000
	259.096000	20505.692369	-37.030492	22.843441	-0.001493	0.003034
	259.638000	20600.107628	-37.037084	22.842784	-0.001516	0.003068
	260.183000	20703.819995	-37.012172	22.848622	-0.001537	0.003101
	260.726000	20806.044588	-37.006134	22.849968	-0.001560	0.003134
	261.270000	20899.292521	-37.005441	22.847421	-0.001583	0.003169
	261.812000	21009.231453	-36.983791	22.850751	-0.001605	0.003204
	262.353000	21099.811371	-36.972662	22.846339	-0.001629	0.003240
	262.894000	21205.997039	-36.975392	22.848627	-0.001653	0.003276
	263.436000	21290.249029	-36.968408	22.850054	-0.001676	0.003311
	263.978000	21390.860331	-36.955626	22.852666	-0.001701	0.003348
	264.520000	21472.729299	-36.937135	22.851046	-0.001726	0.003387
	265.065000	21568.862755	-36.931503	22.851835	-0.001750	0.003424
	265.607000	21668.202071	-36.935222	22.849297	-0.001776	0.003463
	266.153000	21762.752763	-36.917823	22.851018	-0.001801	0.003503
	266.694000	21859.525502	-36.905892	22.850604	-0.001827	0.003543
	267.242000	21945.004533	-36.891722	22.853981	-0.001854	0.003583
	267.781000	22035.373661	-36.888309	22.848972	-0.001882	0.003625
	268.328000	22140.464580	-36.872941	22.850642	-0.001909	0.003667
	268.874000	22220.166363	-36.874603	22.855519	-0.001937	0.003708
	269.418000	22307.703244	-36.862949	22.857327	-0.001964	0.003752
	269.962000	22395.013103	-36.855870	22.856541	-0.001993	0.003797
	270.502000	22477.136618	-36.852724	22.858507	-0.002022	0.003841
	271.044000	22567.082352	-36.841276	22.859557	-0.002051	0.003886
	271.587000	22646.265719	-36.826079	22.861736	-0.002080	0.003932
	272.133000	22733.359868	-36.818486	22.857348	-0.002111	0.003978
	272.675000	22816.352923	-36.812367	22.864128	-0.002141	0.004026
	273.221000	22895.610393	-36.815877	22.866841	-0.002172	0.004074
	273.761000	22981.952630	-36.777723	22.870923	-0.002204	0.004123
	274.303000	23047.124338	-36.776396	22.871031	-0.002235	0.004172
	274.843000	23138.163471	-36.773369	22.874545	-0.002268	0.004224
	275.384000	23220.832941	-36.779227	22.875063	-0.002302	0.004276
	275.923000	23295.230966	-36.759686	22.878676	-0.002335	0.004330
	276.468000	23360.367287	-36.742979	22.878127	-0.002369	0.004383
	277.012000	23438.061357	-36.738126	22.877858	-0.002404	0.004437
	277.553000	23497.260986	-36.725802	22.876031	-0.002438	0.004492
	278.091000	23576.001686	-36.730561	22.878032	-0.002474	0.004549
	278.639000	23656.074013	-36.709417	22.882240	-0.002510	0.004609
	279.183000	23729.093787	-36.698999	22.884381	-0.002547	0.004669
	279.726000	23793.510413	-36.693350	22.880441	-0.002585	0.004730
	280.289000	23846.713791	-36.671388	22.881486	-0.002622	0.004791
	280.835000	23921.450038	-36.669230	22.883645	-0.002661	0.004856
	281.378000	23984.340239	-36.657995	22.882665	-0.002700	0.004921
	281.919000	24065.526866	-36.643374	22.889572	-0.002741	0.004987
	282.458000	24122.250115	-36.653199	22.890461	-0.002779	0.005053
	282.997000	24180.348458	-36.636038	22.891862	-0.002820	0.005121
	283.540000	24236.835023	-36.631813	22.889862	-0.002861	0.005192
	284.084000	24298.060340	-36.616349	22.891794	-0.002903	0.005263
	284.626000	24362.032624	-36.606740	22.892767	-0.002947	0.005338
	285.188000	24411.458586	-36.597897	22.891760	-0.002990	0.005412
	285.734000	24466.624830	-36.594960	22.898523	-0.003034	0.005490
	286.277000	24521.618791	-36.581338	22.896485	-0.003080	0.005578
	286.818000	24724.868174	-36.561501	22.899980	-0.003174	0.005771
	287.362000	24938.158704	-36.543013	22.900001	-0.003303	0.006002
	287.905000	25063.562577	-36.517424	22.901222	-0.003434	0.006240
	288.447000	25167.943990	-36.490493	22.900575	-0.003568	0.006486
	288.986000	25266.335560	-36.477489	22.903693	-0.003705	0.006739
	289.527000	25371.053543	-36.459964	22.909089	-0.003847	0.007005
	290.072000	25468.694806	-36.429204	22.908023	-0.003992	0.007279
	290.618000	25561.972504	-36.398894	22.916649	-0.004140	0.007562
	291.160000	25651.817316	-36.376780	22.919343	-0.004292	0.007854
	291.699000	25729.787062	-36.359429	22.924875	-0.004447	0.008160
	292.245000	25806.729529	-36.347211	22.932646	-0.004604	0.008470
	292.786000	25894.238011	-36.321742	22.934625	-0.004766	0.008789
	293.329000	25968.092176	-36.296446	22.940510	-0.004928	0.009112
	293.869000	26040.973799	-36.270980	22.947281	-0.005093	0.009446
	294.413000	26107.451744	-36.263373	22.952408	-0.005259	0.009778
	294.953000	26189.366509	-36.219696	22.959441	-0.005425	0.010116
	295.494000	26256.652784	-36.186108	22.967389	-0.005594	0.010458
	296.038000	26318.636739	-36.180270	22.976744	-0.005760	0.010799
	296.578000	26391.845283	-36.154523	22.982413	-0.005925	0.011141
	297.119000	26458.097848	-36.142341	22.991443	-0.006095	0.011489
	297.659000	26506.934688	-36.105742	23.000458	-0.006261	0.011833
	298.201000	26581.656831	-36.091569	23.004931	-0.006426	0.012176
	298.741000	26638.493073	-36.064010	23.011462	-0.006592	0.012518
	299.288000	26697.609339	-36.051055	23.020041	-0.006758	0.012863
	299.827000	26758.004101	-36.020188	23.031449	-0.006922	0.013206
	300.371000	26832.420347	-35.996715	23.038946	-0.007085	0.013549
	300.915000	26889.226026	-35.974433	23.047641	-0.007246	0.013886
	301.457000	26946.699935	-35.957388	23.054900	-0.007410	0.014227
	302.002000	27008.824066	-35.938321	23.065884	-0.007575	0.014574
	302.560000	27073.743483	-35.914677	23.071913	-0.007735	0.014910
	303.102000	27130.690885	-35.883862	23.082439	-0.007894	0.015246
	303.644000	27182.453499	-35.864508	23.092288	-0.008053	0.015582
	304.188000	27232.660678	-35.831983	23.091517	-0.008208	0.015913
	304.729000	27307.160731	-35.815891	23.104915	-0.008368	0.016251
	305.274000	27359.665658	-35.787053	23.112993	-0.008524	0.016582
	305.815000	27412.840430	-35.775962	23.122629	-0.008680	0.016910
	306.357000	27463.760946	-35.745965	23.126593	-0.008836	0.017251
	306.909000	27528.754495	-35.736285	23.134231	-0.008995	0.017582
	307.456000	27575.528794	-35.692923	23.144731	-0.009150	0.017912
	308.000000	27626.896961	-35.699843	23.154586	-0.009304	0.018238
	308.540000	27675.233151	-35.665756	23.161725	-0.009458	0.018567
	309.080000	27738.724425	-35.645027	23.172423	-0.009611	0.018895
	309.625000	27789.636925	-35.615062	23.176205	-0.009765	0.019223
	310.172000	27856.693171	-35.594710	23.185548	-0.009918	0.019550
	310.712000	27903.251737	-35.574257	23.197542	-0.010070	0.019875
	311.255000	27958.751681	-35.557154	23.201440	-0.010222	0.020205
	311.802000	28002.553619	-35.513242	23.213009	-0.010374	0.020527
	312.340000	28060.298176	-35.502396	23.218133	-0.010525	0.020849
	312.881000	28105.728022	-35.490532	23.225857	-0.010676	0.021176
	313.427000	28160.722392	-35.441741	23.230919	-0.010827	0.021500
	313.967000	28204.422907	-35.432470	23.245217	-0.010975	0.021819
	314.505000	28263.999881	-35.408852	23.249046	-0.011128	0.022145
	315.047000	28305.045205	-35.393656	23.257405	-0.011276	0.022465
	315.590000	28364.296937	-35.368682	23.267494	-0.011427	0.022793
	316.139000	28410.044022	-35.336830	23.274962	-0.011580	0.023121
	316.690000	28456.488322	-35.316236	23.284512	-0.011729	0.023443
	317.232000	28497.928158	-35.286793	23.297862	-0.011877	0.023765
	317.776000	28550.937211	-35.277042	23.304143	-0.012025	0.024087
	318.317000	28599.742065	-35.243135	23.312125	-0.012172	0.024405
	318.859000	28647.846491	-35.230105	23.317893	-0.012322	0.024729
	319.401000	28690.511698	-35.213028	23.326406	-0.012471	0.025055
	319.950000	28737.336032	-35.181015	23.338875	-0.012618	0.025376
	320.492000	28790.237230	-35.149404	23.344815	-0.012767	0.025702
	321.038000	28832.385580	-35.139701	23.351887	-0.012917	0.026003
	321.577000	28885.913153	-35.112284	23.360203	-0.013065	0.026297
	322.118000	28930.673244	-35.085842	23.367309	-0.013216	0.026603
	322.673000	28969.918432	-35.066748	23.377580	-0.013367	0.026905
	323.215000	29024.017640	-35.042474	23.381680	-0.013515	0.027203
	323.758000	29077.501762	-35.017333	23.389569	-0.013665	0.027493
	324.304000	29110.895526	-35.012554	23.404335	-0.013813	0.027662
	324.843000	29164.355505	-34.970413	23.409515	-0.013278	0.020796
	325.386000	29213.525939	-34.956379	23.414669	-0.012771	0.018739
	325.929000	29244.180778	-34.925654	23.425000	-0.011582	0.017070
	326.468000	29294.510559	-34.911268	23.432131	-0.010811	0.015851
	327.012000	29340.251297	-34.886527	23.439480	-0.010055	0.014764
	327.553000	29381.277396	-34.852971	23.444871	-0.009433	0.013988
	328.093000	29416.448837	-34.854955	23.457807	-0.009092	0.013580
	328.635000	29458.191478	-34.817841	23.466428	-0.008863	0.013290
	329.178000	29516.229277	-34.784095	23.470279	-0.008665	0.013045
	329.717000	29549.144849	-34.783406	23.478425	-0.008438	0.012762
	330.265000	29596.139955	-34.760541	23.486094	-0.008192	0.012474
	330.804000	29633.871621	-34.730535	23.496040	-0.007991	0.012245
	331.347000	29680.774954	-34.707162	23.505214	-0.007835	0.012054
	331.889000	29720.087837	-34.686948	23.512314	-0.007688	0.011882
	332.430000	29764.648348	-34.660084	23.517269	-0.007565	0.011743
	332.974000	29797.312747	-34.642855	23.526745	-0.007440	0.011595
	333.515000	29851.088409	-34.622921	23.538066	-0.007272	0.011437
	334.058000	29884.599777	-34.593584	23.544663	-0.007062	0.011191
	334.601000	29921.490946	-34.561233	23.553126	-0.006869	0.010956
	335.143000	29969.785519	-34.538195	23.558942	-0.006731	0.010774
	335.684000	30012.236700	-34.529081	23.566518	-0.006599	0.010612
	336.223000	30046.609536	-34.506459	23.575581	-0.006487	0.010482
	336.765000	30092.155520	-34.476555	23.585474	-0.006405	0.010361
	337.309000	30124.600957	-34.466916	23.592068	-0.006337	0.010257
	337.847000	30174.983976	-34.435596	23.598108	-0.006276	0.010160
	338.390000	30214.639876	-34.404896	23.606561	-0.006220	0.010061
	338.932000	30239.245280	-34.385384	23.613050	-0.006166	0.009971
	339.472000	30274.362044	-34.362720	23.620346	-0.006112	0.009886
	340.018000	30328.902608	-34.342641	23.630553	-0.006058	0.009806
	340.561000	30356.066619	-34.319516	23.636518	-0.006001	0.009725
	341.102000	30402.569093	-34.295618	23.644526	-0.005946	0.009646
	341.650000	30442.835280	-34.280985	23.656972	-0.005891	0.009560
	342.197000	30476.826533	-34.257915	23.664157	-0.005843	0.009487
	342.740000	30727.527809	-34.213677	23.669405	-0.005798	0.009424
	343.286000	30763.768534	-34.162339	23.677729	-0.005731	0.009330
	343.827000	30851.619329	-34.127994	23.688904	-0.005684	0.009220
	344.367000	30911.080734	-34.078904	23.697230	-0.005624	0.009093
	344.911000	30992.184829	-34.032422	23.713200	-0.005574	0.008967
	345.452000	31049.190699	-33.992429	23.723840	-0.005526	0.008843
	345.992000	31136.394258	-33.935961	23.737441	-0.005380	0.006750
	346.538000	31200.074428	-33.894261	23.751200	-0.004457	0.006161
	347.084000	31259.494017	-33.856809	23.761933	-0.004470	0.005899
	347.625000	31341.641589	-33.805821	23.781387	-0.004505	0.005685
	348.170000	31409.738569	-33.761516	23.796373	-0.004546	0.005529
	348.717000	31472.478423	-33.719385	23.816074	-0.004547	0.005423
	349.260000	31550.958001	-33.676851	23.830688	-0.004539	0.005340
	349.804000	31611.929874	-33.637289	23.847025	-0.004530	0.005272
	350.347000	31683.685277	-33.592569	23.861038	-0.004521	0.005217
	350.887000	31746.389750	-33.544267	23.879653	-0.004513	0.005168
	351.432000	31820.082248	-33.491016	23.894510	-0.004506	0.005122
	351.977000	31878.919035	-33.443030	23.910604	-0.004486	0.005063
	352.519000	31938.462708	-33.403292	23.924527	-0.004477	0.005021
	353.064000	32007.733629	-33.356201	23.941767	-0.004469	0.004981
	353.609000	32066.324080	-33.306319	23.959571	-0.004462	0.004948
	354.151000	32136.247152	-33.246814	23.974779	-0.004459	0.004913
	354.690000	32190.741264	-33.219782	23.988026	-0.004457	0.004881
	355.232000	32260.500118	-33.164841	24.004625	-0.004454	0.004850
	355.775000	32320.301482	-33.127994	24.019912	-0.004451	0.004823
	356.317000	32382.875625	-33.079477	24.033341	-0.004480	0.004830
	356.855000	32439.728722	-33.032132	24.052277	-0.004523	0.004848
	357.398000	32505.856607	-32.986715	24.067808	-0.004541	0.004838
	357.955000	32573.275888	-32.935831	24.082183	-0.004555	0.004828
	358.496000	32619.880055	-32.900089	24.103519	-0.004566	0.004817
	359.040000	32691.753184	-32.848281	24.118258	-0.004575	0.004805
	359.579000	32744.786917	-32.805454	24.131858	-0.004582	0.004793
	360.122000	32810.275601	-32.777273	24.145116	-0.004591	0.004784
	360.665000	32864.354373	-32.702597	24.166722	-0.004604	0.004775
	361.210000	32922.867662	-32.685925	24.181242	-0.004614	0.004768
	361.750000	32986.585148	-32.641028	24.193977	-0.004618	0.004756
	362.294000	33037.205222	-32.591181	24.212517	-0.004625	0.004747
	362.837000	33089.720515	-32.534645	24.225609	-0.004633	0.004739
	363.379000	33152.351138	-32.497457	24.242633	-0.004638	0.004732
	363.924000	33202.121041	-32.451793	24.260524	-0.004643	0.004723
	364.478000	33260.805064	-32.407749	24.272584	-0.004649	0.004716
	365.019000	33299.147337	-32.357042	24.293368	-0.004657	0.004712
	365.569000	33380.008772	-32.304328	24.307399	-0.004667	0.004711
	366.111000	33426.437524	-32.268016	24.325300	-0.004676	0.004709
	366.657000	33477.944879	-32.218475	24.341260	-0.004681	0.004707
	367.202000	33532.611471	-32.163324	24.352191	-0.004684	0.004703
	367.741000	33595.667260	-32.129800	24.370309	-0.004689	0.004698
	368.284000	33646.823615	-32.068946	24.384569	-0.004695	0.004692
	368.827000	33697.725560	-32.047908	24.403092	-0.004698	0.004687
	369.369000	33755.971680	-31.983933	24.419125	-0.004698	0.004686
	369.910000	33803.126681	-31.941325	24.432735	-0.004698	0.004685
	370.454000	33848.661818	-31.903197	24.443179	-0.004699	0.004683
	371.001000	33906.867706	-31.857742	24.461543	-0.004707	0.004680
	371.547000	33960.222036	-31.803081	24.474970	-0.004709	0.004679
	372.091000	34004.702502	-31.766334	24.491033	-0.004712	0.004681
	372.632000	34070.513443	-31.719572	24.501657	-0.004715	0.004681
	373.174000	34109.506322	-31.672961	24.517427	-0.004718	0.004683
	373.723000	34161.923538	-31.631944	24.534341	-0.004720	0.004682
	374.270000	34206.540896	-31.588592	24.550562	-0.004722	0.004683
	374.811000	34273.788179	-31.539547	24.561876	-0.004726	0.004682
	375.354000	34317.674514	-31.493338	24.574856	-0.004730	0.004686
	375.895000	34362.245195	-31.439389	24.594122	-0.004719	0.004692
	376.435000	34408.525927	-31.407289	24.603717	-0.004715	0.004695
	376.980000	34462.171779	-31.359409	24.621306	-0.004715	0.004697
	377.520000	34509.128809	-31.315300	24.636853	-0.004715	0.004697
	378.063000	34548.294027	-31.265134	24.654020	-0.004716	0.004697
	378.615000	34614.926272	-31.221097	24.667298	-0.004719	0.004696
	379.156000	34651.861352	-31.178315	24.683227	-0.004720	0.004695
	379.697000	34708.568256	-31.129914	24.698807	-0.004719	0.004695
	380.239000	34744.653152	-31.081068	24.711162	-0.004717	0.004696
	380.780000	34797.365127	-31.043223	24.729708	-0.004721	0.004693
	381.327000	34839.531816	-30.990004	24.742764	-0.004723	0.004693
	381.873000	34881.522994	-30.946479	24.761688	-0.004724	0.004692
	382.414000	34930.850318	-30.911892	24.775022	-0.004724	0.004690
	382.958000	34989.713341	-30.853489	24.792961	-0.004722	0.004691
	383.501000	35027.811035	-30.814282	24.806282	-0.004720	0.004690
	384.046000	35072.679692	-30.767726	24.818302	-0.004720	0.004690
	384.589000	35120.604541	-30.716526	24.835399	-0.004721	0.004687
	385.134000	35167.408687	-30.671068	24.846095	-0.004720	0.004688
	385.674000	35211.498015	-30.637442	24.861923	-0.004717	0.004689
	386.218000	35273.433375	-30.583814	24.881126	-0.004718	0.004690
	386.761000	35306.919439	-30.536482	24.887781	-0.004715	0.004690
	387.300000	35349.351870	-30.484941	24.911513	-0.004714	0.004689
	387.859000	35398.901465	-30.449421	24.924693	-0.004713	0.004689
	388.401000	35445.195210	-30.394302	24.939692	-0.004720	0.004689
	388.946000	35482.555473	-30.367181	24.954906	-0.004721	0.004688
	389.491000	35534.377103	-30.315302	24.972259	-0.004721	0.004689
	390.033000	35577.215336	-30.260550	24.983556	-0.004722	0.004692
	390.576000	35623.035698	-30.223220	25.003363	-0.004723	0.004694
	391.120000	35658.999919	-30.175366	25.020600	-0.004720	0.004697
	391.660000	35708.601084	-30.133213	25.035206	-0.004716	0.004699
	392.204000	35754.405357	-30.083675	25.046638	-0.004714	0.004701
	392.744000	35792.752714	-30.040751	25.062706	-0.004719	0.004701
	393.291000	35832.740892	-29.991980	25.082216	-0.004722	0.004700
	393.829000	35883.614155	-29.950412	25.093014	-0.004721	0.004700
	394.371000	35922.343150	-29.899312	25.104614	-0.004721	0.004701
	394.916000	35961.394192	-29.863766	25.123555	-0.004724	0.004703
	395.457000	36005.622093	-29.825583	25.140247	-0.004726	0.004703
	396.001000	36054.899655	-29.771968	25.157801	-0.004723	0.004705
	396.553000	36092.034550	-29.721938	25.169651	-0.004720	0.004707
	397.095000	36132.840749	-29.683948	25.183600	-0.004721	0.004706
	397.638000	36171.299252	-29.623821	25.197554	-0.004719	0.004704
	398.183000	36219.562394	-29.586991	25.215444	-0.004720	0.004705
	398.729000	36257.739118	-29.542415	25.231836	-0.004720	0.004704
	399.274000	36296.567989	-29.501930	25.244680	-0.004720	0.004704
	399.814000	36336.804194	-29.448009	25.258612	-0.004716	0.004706
	400.357000	36375.285264	-29.413809	25.274393	-0.004714	0.004706
	400.903000	36423.443768	-29.350314	25.286984	-0.004720	0.004705
	401.448000	36454.641814	-29.311407	25.305194	-0.004719	0.004713
	401.990000	36498.570276	-29.257950	25.319462	-0.004724	0.004715
	402.531000	36540.453763	-29.227579	25.337154	-0.004732	0.004731
	403.074000	36573.580865	-29.183760	25.350105	-0.004745	0.004740
	403.616000	36616.127772	-29.130931	25.364991	-0.004752	0.004751
	404.161000	36655.030750	-29.102757	25.380185	-0.004761	0.004761
	404.704000	36689.539434	-29.045654	25.398001	-0.004764	0.004775
	405.245000	36727.547136	-29.004460	25.412274	-0.004662	0.004856
	405.787000	36765.073386	-28.954220	25.428350	-0.004647	0.004899
	406.333000	36810.858475	-28.907291	25.442017	-0.004638	0.004927
	406.879000	36847.091724	-28.861978	25.455668	-0.004625	0.004952
	407.422000	36887.445540	-28.813683	25.473087	-0.004610	0.004978
	407.963000	36919.831970	-28.781364	25.486557	-0.004585	0.005009
	408.502000	36961.329052	-28.721904	25.499536	-0.004584	0.005017
	409.047000	36995.407839	-28.667339	25.517978	-0.004588	0.005020
	409.589000	37032.351214	-28.645371	25.531065	-0.004587	0.005024
	410.133000	37066.251275	-28.590622	25.542470	-0.004586	0.005027
	410.675000	37097.579803	-28.537703	25.558683	-0.004583	0.005030
	411.218000	37147.696440	-28.506614	25.574104	-0.004586	0.005028
	411.758000	37182.449926	-28.464818	25.593131	-0.004583	0.005033
	412.304000	37221.454412	-28.408463	25.602258	-0.004580	0.005035
	412.851000	37256.008237	-28.357137	25.618614	-0.004581	0.005036
	413.390000	37293.624718	-28.315579	25.635295	-0.004580	0.005039
	413.935000	37330.336254	-28.262222	25.651101	-0.004580	0.005041
	414.478000	37370.052475	-28.231401	25.667196	-0.004578	0.005043
	415.020000	37409.931334	-28.175345	25.676946	-0.004578	0.005042
	415.563000	37452.806830	-28.140933	25.687244	-0.004579	0.005042
	416.110000	37482.299739	-28.102566	25.710792	-0.004579	0.005042
	416.652000	37520.644064	-28.060499	25.724488	-0.004580	0.005041
	417.197000	37555.505474	-28.002444	25.738989	-0.004580	0.005041
	417.738000	37590.207475	-27.941290	25.751869	-0.004580	0.005040
	418.283000	37628.158917	-27.911245	25.768275	-0.004581	0.005040
	418.821000	37660.500333	-27.862370	25.779097	-0.004579	0.005041
	419.361000	37683.061230	-27.829774	25.799955	-0.004576	0.005042
	419.907000	37735.082850	-27.772646	25.810579	-0.004574	0.005041
	420.450000	37755.310533	-27.718571	25.828618	-0.004578	0.005041
	420.992000	37802.741404	-27.674279	25.839239	-0.004575	0.005039
	421.535000	37840.145392	-27.640543	25.856362	-0.004577	0.005039
	422.087000	37867.488680	-27.599226	25.869700	-0.004573	0.005039
	422.628000	37904.638260	-27.529645	25.882901	-0.004565	0.005032
	423.171000	37944.217679	-27.504150	25.904917	-0.004562	0.005032
	423.711000	37970.742977	-27.450278	25.914821	-0.004560	0.005031
	424.254000	38005.755796	-27.402971	25.930036	-0.004557	0.005030
	424.796000	38039.449835	-27.369068	25.944844	-0.004553	0.005030
	425.338000	38083.919537	-27.313589	25.957346	-0.004554	0.005030
	425.881000	38108.230783	-27.273998	25.973813	-0.004554	0.005030
	426.424000	38141.651096	-27.223185	25.986070	-0.004555	0.005030
	426.965000	38183.217565	-27.188548	26.004606	-0.004555	0.005031
	427.504000	38211.657446	-27.141509	26.019296	-0.004558	0.005028
	428.052000	38239.385607	-27.100878	26.037016	-0.004559	0.005027
	428.611000	38357.845427	-27.037071	26.053686	-0.004557	0.005031
	429.154000	38416.515795	-26.970221	26.068018	-0.004556	0.005034
	429.697000	38452.282246	-26.906633	26.084053	-0.004557	0.005032
	430.244000	38483.504630	-26.852857	26.101689	-0.004556	0.005034
	430.783000	38528.887390	-26.786567	26.118085	-0.004558	0.005032
	431.327000	38584.458093	-26.718616	26.136028	-0.004561	0.005032
	431.867000	38625.905463	-26.658763	26.152788	-0.004555	0.005038
	432.405000	38664.779683	-26.590338	26.178073	-0.004554	0.005039
	432.950000	38718.257106	-26.524226	26.197324	-0.004554	0.005041
	433.491000	38754.592002	-26.466904	26.222417	-0.004554	0.005043
	434.033000	38802.135732	-26.404971	26.240433	-0.004559	0.005043
	434.572000	38852.869343	-26.333983	26.265016	-0.004561	0.005041
	435.113000	38898.973536	-26.273419	26.282160	-0.004564	0.005040
	435.657000	38935.079802	-26.209663	26.306069	-0.004565	0.005039
	436.200000	38981.412660	-26.139570	26.328283	-0.004562	0.005040
	436.740000	39022.699052	-26.098289	26.352137	-0.004560	0.005041
	437.285000	39069.358803	-26.022915	26.372141	-0.004560	0.005042
	437.841000	39116.649772	-25.946127	26.392462	-0.004557	0.005042
	438.379000	39160.816892	-25.887231	26.413169	-0.004558	0.005041
	438.923000	39193.544912	-25.847219	26.438281	-0.004555	0.005042
	439.467000	39244.188407	-25.773590	26.454512	-0.004555	0.005042
	440.007000	39279.304412	-25.715122	26.477926	-0.004554	0.005042
	440.550000	39317.740727	-25.647029	26.500832	-0.004552	0.005045
	441.096000	39368.484075	-25.575142	26.521233	-0.004551	0.005046
	441.635000	39398.275047	-25.520909	26.540038	-0.004552	0.005044
	442.177000	39451.598006	-25.469391	26.564449	-0.004549	0.005047
	442.721000	39486.358172	-25.396087	26.587375	-0.004548	0.005046
	443.262000	39525.317839	-25.327347	26.609745	-0.004545	0.005046
	443.805000	39566.543110	-25.263330	26.627388	-0.004546	0.005045
	444.359000	39609.687789	-25.192941	26.654049	-0.004536	0.005047
	444.903000	39650.660268	-25.130883	26.671822	-0.004530	0.005046
	445.446000	39689.616734	-25.074299	26.691975	-0.004527	0.005046
	446.003000	39736.371579	-24.991141	26.715378	-0.004530	0.005044
	446.543000	39770.152753	-24.931263	26.735044	-0.004536	0.005041
	447.086000	39816.073510	-24.876515	26.760159	-0.004532	0.005043
	447.629000	39857.298820	-24.817442	26.781084	-0.004526	0.005043
	448.171000	39890.252342	-24.756449	26.798136	-0.004531	0.005043
	448.713000	39929.780470	-24.676515	26.819410	-0.004525	0.005044
	449.256000	39968.835193	-24.626053	26.842112	-0.004521	0.005044
	449.796000	40010.334264	-24.570248	26.867708	-0.004518	0.005044
	450.337000	40043.825621	-24.511678	26.885505	-0.004522	0.005043
	450.884000	40079.888534	-24.438996	26.904995	-0.004523	0.005042
	451.427000	40121.954424	-24.357136	26.927890	-0.004520	0.005042
	451.973000	40152.453967	-24.299373	26.947367	-0.004517	0.005042
	452.522000	40193.080311	-24.242512	26.971820	-0.004516	0.005043
	453.064000	40229.247906	-24.180889	26.990540	-0.004519	0.005043
	453.605000	40394.339398	-24.109279	27.014978	-0.004520	0.005044
	454.153000	40420.457501	-24.005483	27.031792	-0.004515	0.005047
	454.695000	40458.074341	-23.911063	27.060234	-0.004510	0.005048
	455.239000	40501.705435	-23.827667	27.083448	-0.004510	0.005045
	455.785000	40558.629075	-23.734849	27.110420	-0.004508	0.005048
	456.325000	40622.652282	-23.634485	27.137207	-0.004507	0.005049
	456.868000	40668.540958	-23.538962	27.165737	-0.004502	0.005052
	457.410000	40714.882116	-23.461961	27.198071	-0.004498	0.005053
	457.953000	40756.200939	-23.367268	27.225096	-0.004496	0.005055
	458.494000	40811.111820	-23.281567	27.254709	-0.004495	0.005054
	459.040000	40860.704084	-23.191972	27.288690	-0.004500	0.005050
	459.580000	40906.567027	-23.099176	27.318661	-0.004499	0.005049
	460.125000	40966.427826	-23.004673	27.351702	-0.004498	0.005048
	460.670000	41020.044109	-22.918053	27.381550	-0.004497	0.005047
	461.212000	41065.554436	-22.819222	27.412283	-0.004494	0.005048
	461.751000	41099.305155	-22.738335	27.445450	-0.004489	0.005047
	462.309000	41150.301594	-22.650428	27.482859	-0.004490	0.005048
	462.855000	41203.281861	-22.543994	27.510595	-0.004485	0.005051
	463.398000	41244.695751	-22.452541	27.540610	-0.004486	0.005050
	463.941000	41292.912930	-22.372081	27.574820	-0.004485	0.005051
	464.482000	41340.143039	-22.278796	27.605134	-0.004480	0.005053
	465.026000	41382.263840	-22.193368	27.639592	-0.004475	0.005058
	465.567000	41426.241267	-22.094338	27.670362	-0.004472	0.005063
	466.109000	41474.600174	-22.009270	27.698669	-0.004470	0.005066
	466.656000	41515.134907	-21.918281	27.735205	-0.004472	0.005068
	467.195000	41564.221656	-21.830840	27.760798	-0.004465	0.005071
	467.738000	41606.469702	-21.739410	27.795331	-0.004466	0.005073
	468.279000	41643.883791	-21.655805	27.833107	-0.004467	0.005073
	468.819000	41690.283065	-21.565102	27.860153	-0.004466	0.005076
	469.363000	41734.146203	-21.466001	27.888093	-0.004468	0.005079
	469.907000	41764.430132	-21.367727	27.922361	-0.004465	0.005083
	470.446000	41811.518609	-21.289126	27.955452	-0.004462	0.005085
	470.988000	41856.265791	-21.200104	27.979272	-0.004457	0.005092
	471.531000	41891.227500	-21.109556	28.014865	-0.004456	0.005097
	472.074000	41936.659052	-20.998743	28.048397	-0.004450	0.005104
	472.616000	41970.013745	-20.919172	28.079817	-0.004456	0.005107
	473.159000	42020.097314	-20.834067	28.109386	-0.004455	0.005108
	473.698000	42057.364918	-20.741970	28.138767	-0.004453	0.005111
	474.241000	42094.159114	-20.654200	28.170619	-0.004452	0.005117
	474.781000	42118.109970	-20.541104	28.206125	-0.004452	0.005121
	475.322000	42175.818096	-20.474895	28.236833	-0.004448	0.005125
	475.865000	42208.638208	-20.387319	28.267315	-0.004448	0.005126
	476.409000	42253.747757	-20.288887	28.303561	-0.004448	0.005130
	476.953000	42278.228394	-20.183916	28.337341	-0.004452	0.005131
	477.494000	42315.996820	-20.103524	28.366907	-0.004447	0.005138
	478.039000	42358.568624	-20.027722	28.398668	-0.004444	0.005141
	478.585000	42385.561260	-19.930598	28.437121	-0.004446	0.005145
	479.129000	42425.524468	-19.838913	28.462869	-0.004444	0.005150
	479.668000	42467.793567	-19.737149	28.500033	-0.004442	0.005153
	480.210000	42497.180654	-19.647473	28.529135	-0.004439	0.005161
	480.752000	42532.532125	-19.561981	28.561378	-0.004439	0.005165
	481.292000	42565.991541	-19.470270	28.599428	-0.004442	0.005170
	481.833000	42598.289977	-19.383345	28.633279	-0.004445	0.005175
	482.377000	42642.274017	-19.283809	28.661427	-0.004445	0.005180
	482.918000	42666.550182	-19.202468	28.695218	-0.004440	0.005187
	483.459000	42693.386649	-19.103521	28.728736	-0.004440	0.005192
	484.005000	42744.077406	-19.026572	28.762511	-0.004441	0.005198
	484.552000	42765.807768	-18.928376	28.794823	-0.004445	0.005200
	485.092000	42797.148123	-18.838153	28.832149	-0.004440	0.005206
	485.633000	42837.330383	-18.744485	28.864726	-0.004436	0.005215
	486.175000	42860.083263	-18.660893	28.899714	-0.004434	0.005220
	486.714000	42891.317352	-18.569778	28.932193	-0.004433	0.005227
	487.258000	42921.532152	-18.484498	28.966645	-0.004437	0.005234
	487.801000	42950.581131	-18.390685	29.004581	-0.004446	0.005237
	488.344000	42969.353473	-18.294833	29.039659	-0.004444	0.005243
	488.888000	43008.046272	-18.193027	29.074584	-0.004453	0.005244
	489.430000	43036.491414	-18.115907	29.104522	-0.004448	0.005251
	489.973000	43066.504948	-18.031075	29.141343	-0.004447	0.005255
	490.520000	43093.277041	-17.927066	29.175223	-0.004453	0.005260
	491.063000	43120.485515	-17.838721	29.205200	-0.004447	0.005266
	491.603000	43128.111688	-17.749119	29.241176	-0.004453	0.005273
	492.155000	43180.443362	-17.654833	29.277080	-0.004449	0.005281
	492.696000	43199.627946	-17.559184	29.306846	-0.004450	0.005287
	493.239000	43228.208367	-17.475273	29.342734	-0.004445	0.005294
	493.781000	43252.157698	-17.385903	29.371380	-0.004448	0.005301
	494.321000	43281.610884	-17.303490	29.403686	-0.004446	0.005308
	494.867000	43303.235006	-17.204479	29.440904	-0.004445	0.005319
	495.412000	43340.085715	-17.114890	29.478469	-0.004450	0.005322
	495.952000	43357.832348	-17.019335	29.509513	-0.004460	0.005327
	496.495000	43376.206982	-16.937330	29.544780	-0.004466	0.005331
	497.036000	43402.301184	-16.855313	29.583255	-0.004462	0.005337
	497.577000	43429.279423	-16.757999	29.616063	-0.004465	0.005346
	498.119000	43442.324109	-16.654695	29.648103	-0.004461	0.005357
	498.661000	43476.582322	-16.576494	29.686304	-0.004455	0.005366
	499.202000	43495.665477	-16.488847	29.718871	-0.004468	0.005372
	499.745000	43516.827475	-16.389092	29.751899	-0.004467	0.005382
	500.285000	43538.039392	-16.308534	29.788262	-0.004464	0.005391
	500.829000	43558.909933	-16.213400	29.821042	-0.004468	0.005400
	501.374000	43578.266839	-16.125602	29.860126	-0.004471	0.005405
	501.916000	43600.227528	-16.020338	29.894915	-0.004475	0.005415
	502.460000	43624.144681	-15.932121	29.925533	-0.004471	0.005424
	503.008000	43648.052178	-15.843074	29.961074	-0.004480	0.005429
	503.548000	43656.251610	-15.764940	29.994468	-0.004493	0.005433
	504.091000	43678.626147	-15.666093	30.032751	-0.004491	0.005442
	504.633000	43705.649489	-15.574096	30.070328	-0.004510	0.005444
	505.177000	43718.331882	-15.490423	30.108575	-0.004506	0.005455
	505.718000	43737.737104	-15.406451	30.141692	-0.004520	0.005458
	506.256000	43764.755627	-15.305869	30.173184	-0.004526	0.005463
	506.797000	43774.840675	-15.209537	30.212039	-0.004531	0.005471
	507.342000	43784.001434	-15.119063	30.250478	-0.004534	0.005477
	507.887000	43795.041372	-15.030840	30.286120	-0.004540	0.005486
	508.430000	43821.908534	-14.945281	30.327941	-0.004524	0.005494
	508.973000	43831.663481	-14.840944	30.359282	-0.004541	0.005499
	509.518000	43860.084547	-14.760775	30.393958	-0.004548	0.005511
	510.064000	43882.853608	-14.672265	30.429266	-0.004549	0.005517
	510.607000	43889.027344	-14.572610	30.465117	-0.004551	0.005525
	511.150000	43900.044735	-14.485318	30.505560	-0.004558	0.005535
	511.690000	43910.843133	-14.402788	30.540276	-0.004556	0.005549
	512.230000	43922.172921	-14.307780	30.576158	-0.004556	0.005559
	512.772000	43952.993280	-14.212254	30.612363	-0.004567	0.005572
	513.314000	43952.573003	-14.126787	30.650182	-0.004563	0.005588
	513.857000	43969.347073	-14.028884	30.688184	-0.004559	0.005606
	514.400000	43980.377355	-13.938269	30.727476	-0.004558	0.005621
	514.941000	44000.763240	-13.856123	30.766622	-0.004574	0.005636
	515.479000	43999.974215	-13.752861	30.803991	-0.004578	0.005655
	516.024000	44018.121840	-13.674035	30.840715	-0.004588	0.005669
	516.571000	44029.791394	-13.588401	30.881223	-0.004599	0.005683
	517.113000	44025.701332	-13.489683	30.918228	-0.004599	0.005703
	517.654000	44041.449674	-13.412310	30.957469	-0.004614	0.005716
	518.198000	44056.492723	-13.308526	30.998481	-0.004620	0.005732
	518.739000	44054.710164	-13.217470	31.034908	-0.004605	0.005757
	519.284000	44069.487522	-13.135430	31.073873	-0.004623	0.005773
	519.827000	44080.685270	-13.037700	31.109419	-0.004613	0.005795
	520.367000	44080.255327	-12.956887	31.148049	-0.004603	0.005813
	520.911000	44097.705717	-12.868475	31.185035	-0.004588	0.005821
	521.452000	44094.043986	-12.762379	31.231778	-0.004426	0.005747
	521.993000	44094.061698	-12.673454	31.269543	-0.004392	0.005724
	522.536000	44110.396180	-12.580800	31.308521	-0.004381	0.005718
	523.078000	44108.275465	-12.496342	31.351193	-0.004395	0.005708
	523.617000	44112.608675	-12.406602	31.391798	-0.004385	0.005716
	524.159000	44119.537624	-12.321233	31.433307	-0.004379	0.005725
	524.701000	44120.944992	-12.212413	31.475142	-0.004389	0.005736
	525.237000	44120.792020	-12.147898	31.513088	-0.004416	0.005733
	525.783000	44121.205857	-12.058412	31.558813	-0.004450	0.005727
	526.326000	44116.405668	-11.952675	31.601282	-0.004456	0.005726
	526.868000	44125.598647	-11.861460	31.644891	-0.004471	0.005719
	527.409000	44117.669724	-11.785713	31.687022	-0.004484	0.005719
	527.952000	44117.144779	-11.685456	31.730333	-0.004477	0.005731
	528.492000	44114.959656	-11.592843	31.773470	-0.004487	0.005735
	529.038000	44101.496278	-11.506247	31.821008	-0.004474	0.005754
	529.580000	44100.467314	-11.413406	31.866086	-0.004487	0.005761
	530.126000	44102.090457	-11.325422	31.918382	-0.004504	0.005770
	530.667000	44080.284313	-11.219120	31.956600	-0.004504	0.005782
	531.212000	44068.236350	-11.136829	32.007980	-0.004499	0.005794
	531.759000	44061.069082	-11.035989	32.052140	-0.004512	0.005802
	532.303000	44052.169173	-10.952181	32.098675	-0.004523	0.005813
	532.846000	44031.005529	-10.873413	32.149952	-0.004528	0.005826
	533.387000	44008.717924	-10.772960	32.197644	-0.004537	0.005838
	533.933000	43993.389865	-10.687268	32.244593	-0.004540	0.005852
	534.477000	43957.725835	-10.593622	32.299506	-0.004540	0.005869
	535.022000	43917.002378	-10.503487	32.352631	-0.004550	0.005883
	535.566000	43878.404463	-10.406286	32.402192	-0.004565	0.005899
	536.109000	43841.429705	-10.328013	32.459874	-0.004567	0.005914
	536.653000	43787.849957	-10.235865	32.515437	-0.004568	0.005937
	537.198000	43729.756665	-10.142174	32.571672	-0.004572	0.005961
	537.742000	43640.334215	-10.046474	32.627546	-0.004574	0.005987
	538.283000	43563.254409	-9.959832	32.687344	-0.004566	0.006020
	538.829000	43453.222327	-9.870608	32.746003	-0.004568	0.006049
	539.374000	43337.337013	-9.777429	32.809245	-0.004571	0.006081
	539.917000	43202.278422	-9.690626	32.872500	-0.004603	0.006102
	540.461000	43048.062703	-9.594556	32.944660	-0.004606	0.006141
	541.003000	42859.221780	-9.501619	33.009659	-0.004612	0.006178
	541.543000	42637.934388	-9.422020	33.078407	-0.004632	0.006209
	542.089000	42362.484755	-9.337107	33.150792	-0.004641	0.006246
	542.633000	42042.912934	-9.224101	33.228950	-0.004629	0.006298
	543.181000	41637.223808	-9.137978	33.310940	-0.004643	0.006352
	543.728000	41128.260568	-9.058662	33.391784	-0.004685	0.006384
	544.266000	40450.098819	-8.972056	33.481523	-0.004673	0.006592
	544.809000	31.650821	-8.872617	33.761817	-0.004689	0.006584
	545.353000	46.918157	-8.786356	34.125794	-0.004804	0.006505
	545.895000	32.158014	-8.689061	34.481279	-0.004928	0.006423
	546.437000	32.127422	-8.590044	34.854486	-0.004998	0.006380
	546.980000	25.886523	-8.521079	35.219731	-0.005021	0.006358
	547.521000	24.081558	-8.425230	35.594050	-0.005089	0.006285
	548.061000	20.455525	-8.323869	35.963731	-0.005160	0.006233
	548.604000	13.673620	-8.237417	36.331974	-0.005192	0.006213
	549.152000	17.813287	-8.142358	36.708793	-0.005190	0.006200
	549.693000	9.912335	-8.056289	36.992962	-0.005227	0.006161
	550.237000	14.055223	-7.963658	37.087506	-0.005279	0.006128
