LabVIEW Measurement	
Writer_Version	2
Reader_Version	2
Separator	Tab
Decimal_Separator	.
Multi_Headings	No
X_Columns	No
Time_Pref	Absolute
Operator	mechlab
Description	Data file
Date	2024/02/09
Time	16:29:05.2880001068115234375
***End_of_Header***	
	
Channels	6						
Samples	1	1	1	1	1	1	
Date	2024/02/09	2024/02/09	2024/02/09	2024/02/09	2024/02/09	2024/02/09	
Time	16:29:05.2880001068115234375	16:29:05.395999908447265625	16:29:05.5040001869201660156	16:29:05.6129999160766601562	16:29:05.7220001220703125	16:29:05.8309998512268066406	
X_Dimension	Time	Time	Time	Time	Time	Time	
X0	0.0000000000000000E+0	0.0000000000000000E+0	0.0000000000000000E+0	0.0000000000000000E+0	0.0000000000000000E+0	0.0000000000000000E+0	
Delta_X	1.000000	1.000000	1.000000	1.000000	1.000000	1.000000	
***End_of_Header***							
X_Value	Untitled	Untitled 1	Untitled 2	Untitled 3	Untitled 4	Untitled 5	Comment
	0.000000	89.770394	-39.059016	21.528246	-7.773254E-7	-1.355660E-6
	0.549000	178.622688	-39.053119	21.524871	1.516209E-5	-9.952256E-6
	1.093000	291.984517	-39.059582	21.525459	2.882244E-5	-1.626894E-5
	1.636000	399.878314	-39.055093	21.524884	4.090908E-5	-2.625649E-5
	2.176000	483.373677	-39.050411	21.527527	5.137808E-5	-2.834209E-5
	2.717000	568.967051	-39.050965	21.529786	6.222564E-5	-3.334075E-5
	3.260000	657.250968	-39.038135	21.528114	6.975838E-5	-3.749319E-5
	3.805000	718.309045	-39.031768	21.527581	7.745426E-5	-4.124741E-5
	4.345000	783.740261	-39.028052	21.528536	8.588263E-5	-4.601822E-5
	4.888000	850.185864	-39.018826	21.525086	9.278190E-5	-5.001128E-5
	5.431000	907.851380	-39.022288	21.524145	9.779551E-5	-5.280354E-5
	5.991000	966.104597	-39.013548	21.532644	0.000104	-5.533448E-5
	6.530000	1015.104345	-39.019666	21.530950	0.000110	-5.847138E-5
	7.071000	1064.781962	-39.005162	21.531929	0.000116	-6.155849E-5
	7.616000	1117.006819	-39.002676	21.535157	0.000121	-6.512961E-5
	8.155000	1165.037265	-38.992152	21.531222	0.000126	-6.843692E-5
	8.697000	1202.171900	-38.987621	21.536593	0.000131	-7.072888E-5
	9.241000	1254.002274	-38.991028	21.531718	0.000135	-7.408965E-5
	9.784000	1292.577984	-38.978218	21.534397	0.000140	-7.657817E-5
	10.324000	1330.741498	-38.972456	21.534557	0.000145	-7.838483E-5
	10.880000	1369.779318	-38.967011	21.535130	0.000148	-8.045526E-5
	11.420000	1405.326357	-38.967030	21.539498	0.000152	-8.221090E-5
	11.967000	1438.772165	-38.958396	21.540089	0.000155	-8.520454E-5
	12.521000	1484.975104	-38.962148	21.534199	0.000160	-8.723388E-5
	13.063000	1511.535957	-38.958264	21.537559	0.000165	-8.894470E-5
	13.609000	1551.879601	-38.944095	21.530035	0.000168	-9.061445E-5
	14.153000	1581.435313	-38.959668	21.538284	0.000172	-9.148416E-5
	14.693000	1618.172245	-38.943502	21.531521	0.000175	-9.344629E-5
	15.235000	1647.341525	-38.937493	21.540091	0.000179	-9.455862E-5
	15.788000	1678.826184	-38.941628	21.538492	0.000184	-9.546565E-5
	16.327000	1717.909089	-38.941789	21.538136	0.000187	-9.754721E-5
	16.868000	1742.755145	-38.926564	21.537139	0.000190	-9.898924E-5
	17.410000	1765.437174	-38.917547	21.540556	0.000192	-0.000101
	17.953000	1795.273052	-38.922793	21.539144	0.000196	-0.000103
	18.495000	1832.692684	-38.910343	21.544052	0.000200	-0.000105
	19.037000	1856.083175	-38.906198	21.541364	0.000204	-0.000106
	19.581000	1890.245496	-38.901612	21.542512	0.000208	-0.000107
	20.124000	1919.910699	-38.896492	21.539588	0.000210	-0.000109
	20.666000	1950.360040	-38.887585	21.542253	0.000214	-0.000111
	21.209000	1972.483352	-38.881907	21.543607	0.000218	-0.000114
	21.767000	2008.656737	-38.873026	21.543660	0.000221	-0.000114
	22.306000	2029.187622	-38.872630	21.545784	0.000225	-0.000117
	22.852000	2051.252968	-38.881840	21.544786	0.000227	-0.000119
	23.407000	2080.272506	-38.872349	21.546291	0.000230	-0.000121
	23.952000	2112.182244	-38.856792	21.545119	0.000234	-0.000123
	24.497000	2132.706688	-38.863870	21.542219	0.000237	-0.000124
	25.040000	2169.557944	-38.844526	21.544522	0.000241	-0.000125
	25.583000	2180.540703	-38.853237	21.544973	0.000243	-0.000125
	26.146000	2220.069620	-38.857768	21.547869	0.000247	-0.000127
	26.688000	2244.408484	-38.840078	21.543628	0.000249	-0.000129
	27.233000	2264.491750	-38.831052	21.549853	0.000252	-0.000130
	27.784000	2286.189986	-38.838497	21.546314	0.000255	-0.000132
	28.328000	2378.526640	-38.826350	21.549338	0.000251	-0.000130
	28.875000	2308.630496	-38.836720	21.547845	0.000258	-0.000134
	29.418000	2362.607194	-38.813765	21.549017	0.000263	-0.000137
	29.957000	2388.720432	-38.801927	21.547459	0.000267	-0.000140
	30.499000	2410.969336	-38.795815	21.551607	0.000271	-0.000142
	31.047000	2450.665709	-38.815411	21.550380	0.000274	-0.000143
	31.589000	2464.549940	-38.799187	21.552238	0.000276	-0.000145
	32.132000	2499.898937	-38.796540	21.552539	0.000279	-0.000148
	32.677000	2522.651816	-38.784750	21.547185	0.000282	-0.000147
	33.219000	2552.007875	-38.772983	21.549075	0.000286	-0.000149
	33.763000	2578.051878	-38.783372	21.552846	0.000289	-0.000151
	34.310000	2600.600269	-38.780496	21.554624	0.000290	-0.000152
	34.851000	2621.933005	-38.775437	21.552323	0.000293	-0.000154
	35.397000	2657.607251	-38.769598	21.555060	0.000295	-0.000157
	35.939000	2675.986992	-38.766716	21.558390	0.000298	-0.000158
	36.479000	2707.819447	-38.754614	21.552705	0.000302	-0.000159
	37.025000	2733.673454	-38.751561	21.555782	0.000304	-0.000162
	37.567000	2757.250725	-38.753017	21.551840	0.000308	-0.000162
	38.108000	2785.086814	-38.741086	21.557302	0.000312	-0.000164
	38.652000	2809.399918	-38.732909	21.555719	0.000315	-0.000166
	39.195000	2834.202505	-38.730282	21.555651	0.000317	-0.000169
	39.735000	2862.199609	-38.728533	21.552191	0.000320	-0.000170
	40.277000	2884.775374	-38.721989	21.553965	0.000324	-0.000172
	40.821000	2907.489610	-38.730771	21.553719	0.000327	-0.000174
	41.361000	2936.021281	-38.719761	21.557846	0.000331	-0.000175
	41.903000	2969.475148	-38.719558	21.556179	0.000334	-0.000178
	42.451000	2988.566571	-38.703807	21.558656	0.000336	-0.000179
	42.995000	3019.962680	-38.702113	21.559690	0.000340	-0.000181
	43.537000	3042.013540	-38.699701	21.556878	0.000343	-0.000181
	44.079000	3071.646547	-38.710174	21.557849	0.000345	-0.000182
	44.619000	3099.345776	-38.702120	21.558303	0.000349	-0.000184
	45.164000	3128.349219	-38.694333	21.558996	0.000351	-0.000188
	45.720000	3163.913980	-38.687966	21.559669	0.000359	-0.000186
	46.260000	3146.832010	-38.670171	21.556345	0.000356	-0.000189
	46.803000	3202.310977	-38.669875	21.559144	0.000362	-0.000190
	47.350000	3238.068956	-38.668255	21.555994	0.000365	-0.000189
	47.892000	3267.566712	-38.652041	21.559862	0.000369	-0.000190
	48.436000	3296.773034	-38.666358	21.560414	0.000371	-0.000194
	48.981000	3315.308960	-38.654201	21.557820	0.000375	-0.000198
	49.523000	3349.440699	-38.656050	21.555312	0.000378	-0.000198
	50.065000	3374.832600	-38.647487	21.556291	0.000381	-0.000199
	50.607000	3401.185755	-38.635649	21.555279	0.000385	-0.000203
	51.147000	3440.482823	-38.638489	21.556078	0.000387	-0.000207
	51.693000	3459.566197	-38.633060	21.559810	0.000389	-0.000211
	52.239000	3491.983139	-38.636870	21.557218	0.000393	-0.000213
	52.782000	3524.060341	-38.624333	21.565019	0.000397	-0.000215
	53.327000	3554.509692	-38.632632	21.562065	0.000400	-0.000217
	53.872000	3574.800672	-38.619264	21.560271	0.000403	-0.000220
	54.413000	3604.137417	-38.602328	21.562266	0.000407	-0.000222
	54.958000	3630.001091	-38.593224	21.565320	0.000411	-0.000222
	55.510000	3659.547155	-38.598535	21.561427	0.000414	-0.000223
	56.052000	3695.108701	-38.603765	21.562883	0.000417	-0.000226
	56.596000	3726.973366	-38.605980	21.559229	0.000421	-0.000226
	57.141000	3761.908569	-38.586298	21.565085	0.000426	-0.000229
	57.684000	3778.315893	-38.583676	21.564272	0.000430	-0.000230
	58.227000	3806.028009	-38.577732	21.562314	0.000435	-0.000233
	58.773000	3849.437378	-38.572151	21.561580	0.000438	-0.000234
	59.314000	3869.114896	-38.576714	21.564261	0.000441	-0.000234
	59.859000	3906.471750	-38.558667	21.563599	0.000446	-0.000237
	60.399000	3924.555231	-38.555943	21.564960	0.000449	-0.000238
	60.943000	3953.289787	-38.552555	21.567022	0.000454	-0.000240
	61.486000	3990.461476	-38.545374	21.568319	0.000456	-0.000242
	62.030000	4013.747319	-38.556104	21.562878	0.000461	-0.000242
	62.572000	4046.739085	-38.539832	21.567104	0.000465	-0.000245
	63.113000	4083.970350	-38.553263	21.563390	0.000468	-0.000248
	63.659000	4107.375344	-38.519463	21.563267	0.000472	-0.000250
	64.201000	4145.926925	-38.538659	21.565731	0.000475	-0.000253
	64.747000	4174.490808	-38.516729	21.557872	0.000478	-0.000255
	65.286000	4204.821015	-38.528042	21.562765	0.000483	-0.000258
	65.827000	4237.167117	-38.525082	21.563530	0.000486	-0.000258
	66.369000	4274.681769	-38.512378	21.568151	0.000490	-0.000261
	66.913000	4290.749356	-38.499941	21.564689	0.000493	-0.000263
	67.454000	4325.283640	-38.507129	21.561242	0.000496	-0.000266
	67.999000	4366.466192	-38.501896	21.561818	0.000501	-0.000269
	68.548000	4392.838677	-38.491005	21.564151	0.000506	-0.000271
	69.088000	4426.445521	-38.487076	21.564037	0.000510	-0.000272
	69.632000	4454.147982	-38.480201	21.564296	0.000514	-0.000274
	70.172000	4490.989598	-38.481344	21.560865	0.000519	-0.000276
	70.714000	4519.158999	-38.474398	21.560398	0.000522	-0.000279
	71.257000	4547.623057	-38.474269	21.566074	0.000526	-0.000280
	71.804000	4589.021372	-38.470405	21.563876	0.000531	-0.000283
	72.344000	4617.454837	-38.463806	21.563744	0.000534	-0.000284
	72.889000	4650.398306	-38.459185	21.564771	0.000539	-0.000286
	73.429000	4692.387544	-38.440620	21.563206	0.000544	-0.000289
	73.970000	4720.288054	-38.446011	21.567323	0.000547	-0.000291
	74.516000	4754.271675	-38.442343	21.560933	0.000551	-0.000293
	75.055000	4780.853481	-38.434907	21.561533	0.000556	-0.000296
	75.599000	4811.581399	-38.435232	21.563825	0.000560	-0.000298
	76.142000	4845.432990	-38.432221	21.563354	0.000564	-0.000298
	76.682000	4886.080983	-38.421076	21.562047	0.000569	-0.000299
	77.226000	4917.552786	-38.424141	21.559179	0.000573	-0.000304
	77.771000	4954.557033	-38.419958	21.564715	0.000577	-0.000307
	78.316000	4982.776354	-38.411077	21.560586	0.000580	-0.000310
	78.862000	5015.882452	-38.411434	21.565686	0.000585	-0.000311
	79.419000	5045.349632	-38.391049	21.567067	0.000589	-0.000313
	79.963000	5076.216025	-38.404594	21.563607	0.000587	-0.000313
	80.506000	5057.364500	-38.379060	21.566646	0.000585	-0.000313
	81.045000	5064.423356	-38.410056	21.560770	0.000586	-0.000314
	81.588000	5049.294477	-38.401087	21.561817	0.000587	-0.000314
	82.133000	5065.996464	-38.381614	21.563197	0.000587	-0.000314
	82.674000	5070.543500	-38.392663	21.562248	0.000582	-0.000311
	83.218000	5001.423391	-38.390557	21.561755	0.000574	-0.000306
	83.759000	4943.026818	-38.397393	21.562699	0.000566	-0.000303
	84.298000	4874.916269	-38.397306	21.561231	0.000559	-0.000298
	84.843000	4829.772764	-38.396749	21.563618	0.000552	-0.000295
	85.386000	4765.041903	-38.397194	21.561931	0.000544	-0.000292
	85.928000	4721.721079	-38.401738	21.561540	0.000538	-0.000287
	86.475000	4660.526088	-38.397938	21.563295	0.000532	-0.000285
	87.024000	4604.335415	-38.405225	21.566370	0.000526	-0.000282
	87.566000	4560.061390	-38.403122	21.564015	0.000518	-0.000279
	88.111000	4511.650916	-38.418161	21.566116	0.000513	-0.000276
	88.655000	4446.759049	-38.405570	21.564449	0.000506	-0.000272
	89.199000	4407.730862	-38.415205	21.563150	0.000500	-0.000269
	89.742000	4359.065989	-38.408871	21.563069	0.000492	-0.000266
	90.289000	4304.916979	-38.422087	21.563903	0.000486	-0.000262
	90.833000	4258.390373	-38.421610	21.560052	0.000480	-0.000259
	91.378000	4201.479974	-38.430843	21.561879	0.000474	-0.000257
	91.921000	4150.979544	-38.411196	21.563689	0.000467	-0.000253
	92.462000	4107.729575	-38.427420	21.561730	0.000461	-0.000250
	93.007000	4062.954804	-38.418625	21.561153	0.000453	-0.000247
	93.547000	4004.780450	-38.431165	21.560673	0.000448	-0.000242
	94.087000	3958.149189	-38.430772	21.564262	0.000442	-0.000241
	94.630000	3908.152736	-38.431294	21.560282	0.000435	-0.000236
	95.180000	3863.476187	-38.423005	21.559606	0.000429	-0.000233
	95.724000	3816.902893	-38.437531	21.560293	0.000422	-0.000231
	96.268000	3771.915587	-38.443283	21.564821	0.000416	-0.000228
	96.811000	3716.744148	-38.432688	21.558649	0.000409	-0.000224
	97.353000	3665.028071	-38.432331	21.562437	0.000404	-0.000221
	97.897000	3611.872528	-38.433715	21.564029	0.000396	-0.000218
	98.439000	3569.921949	-38.443022	21.558176	0.000389	-0.000215
	98.983000	3512.485047	-38.438823	21.556121	0.000382	-0.000211
	99.527000	3457.551913	-38.436285	21.564101	0.000377	-0.000208
	100.066000	3415.694723	-38.445202	21.558041	0.000370	-0.000204
	100.607000	3370.918351	-38.450046	21.557363	0.000363	-0.000202
	101.151000	3323.839479	-38.439551	21.556035	0.000357	-0.000198
	101.694000	3271.146052	-38.456467	21.555772	0.000350	-0.000193
	102.233000	3222.457043	-38.447640	21.557677	0.000344	-0.000190
	102.778000	3178.646756	-38.451511	21.562329	0.000339	-0.000188
	103.327000	3132.670833	-38.453540	21.552189	0.000333	-0.000185
	103.872000	3089.905528	-38.454760	21.554756	0.000327	-0.000181
	104.415000	3025.424273	-38.466318	21.560256	0.000320	-0.000178
	104.958000	2985.467052	-38.469577	21.557885	0.000315	-0.000176
	105.501000	2926.600355	-38.472224	21.558640	0.000313	-0.000175
	106.045000	2955.798623	-38.470050	21.556054	0.000320	-0.000178
	106.589000	3016.156310	-38.453601	21.555928	0.000326	-0.000183
	107.132000	3069.854462	-38.462170	21.557490	0.000333	-0.000187
	107.676000	3135.269598	-38.458084	21.554478	0.000340	-0.000192
	108.219000	3213.604496	-38.455488	21.556972	0.000357	-0.000201
	108.761000	3348.981809	-38.453221	21.555893	0.000373	-0.000208
	109.303000	3472.983491	-38.446774	21.557472	0.000390	-0.000217
	109.857000	3603.709120	-38.437168	21.555616	0.000407	-0.000224
	110.397000	3742.921801	-38.430894	21.554669	0.000423	-0.000232
	110.938000	3850.562865	-38.428325	21.552995	0.000439	-0.000241
	111.485000	3980.760383	-38.416380	21.560451	0.000453	-0.000250
	112.031000	4113.385997	-38.421288	21.561247	0.000470	-0.000257
	112.575000	4231.916450	-38.425169	21.557540	0.000485	-0.000265
	113.118000	4355.525291	-38.420338	21.557749	0.000501	-0.000274
	113.658000	4469.964388	-38.417752	21.560509	0.000515	-0.000281
	114.199000	4590.705578	-38.402523	21.557184	0.000529	-0.000288
	114.742000	4702.330160	-38.392518	21.557838	0.000542	-0.000295
	115.281000	4814.175335	-38.395819	21.561826	0.000554	-0.000301
	115.826000	4894.402188	-38.383066	21.560136	0.000563	-0.000307
	116.379000	4970.020822	-38.390064	21.557601	0.000571	-0.000309
	116.920000	5028.910098	-38.382770	21.558862	0.000577	-0.000313
	117.466000	5070.957306	-38.380670	21.561821	0.000584	-0.000317
	118.007000	5125.964536	-38.372198	21.561137	0.000590	-0.000321
	118.550000	5176.490747	-38.369193	21.563446	0.000597	-0.000323
	119.094000	5226.081466	-38.369412	21.562390	0.000603	-0.000327
	119.640000	5275.429055	-38.362186	21.561501	0.000609	-0.000328
	120.179000	5321.110355	-38.359448	21.562778	0.000615	-0.000332
	120.723000	5353.337320	-38.359931	21.563193	0.000619	-0.000335
	121.263000	5401.540102	-38.336446	21.563193	0.000624	-0.000337
	121.804000	5443.474607	-38.333686	21.561002	0.000630	-0.000339
	122.354000	5490.220213	-38.342983	21.563432	0.000634	-0.000342
	122.900000	5522.063967	-38.326791	21.565312	0.000640	-0.000343
	123.447000	5560.390148	-38.313233	21.564519	0.000645	-0.000346
	123.997000	5604.342162	-38.321970	21.563398	0.000650	-0.000350
	124.543000	5644.028914	-38.314902	21.566267	0.000656	-0.000352
	125.086000	5687.819916	-38.321735	21.566206	0.000660	-0.000355
	125.631000	5722.038630	-38.309778	21.568195	0.000665	-0.000359
	126.174000	5758.746623	-38.302310	21.565225	0.000669	-0.000362
	126.719000	5802.658388	-38.289609	21.566599	0.000673	-0.000362
	127.258000	5839.279434	-38.300272	21.564834	0.000678	-0.000365
	127.801000	5877.405964	-38.302156	21.568336	0.000683	-0.000368
	128.343000	5923.720061	-38.289139	21.565649	0.000689	-0.000371
	128.886000	5959.167317	-38.286060	21.565541	0.000695	-0.000373
	129.428000	5984.807204	-38.280943	21.558228	0.000700	-0.000375
	129.969000	6035.602326	-38.287187	21.565968	0.000704	-0.000378
	130.513000	6064.792575	-38.278683	21.564832	0.000709	-0.000380
	131.057000	6114.708562	-38.265969	21.562440	0.000712	-0.000384
	131.601000	6145.742424	-38.263167	21.563382	0.000718	-0.000386
	132.144000	6182.363477	-38.257689	21.566943	0.000722	-0.000388
	132.689000	6221.390081	-38.250286	21.563271	0.000726	-0.000391
	133.230000	6260.510074	-38.244731	21.559849	0.000732	-0.000394
	133.771000	6302.207904	-38.237594	21.568468	0.000738	-0.000397
	134.315000	6343.089394	-38.233337	21.569649	0.000742	-0.000400
	134.860000	6381.708635	-38.229083	21.564839	0.000747	-0.000400
	135.404000	6413.653842	-38.231163	21.566312	0.000752	-0.000399
	135.947000	6452.904260	-38.235199	21.564776	0.000757	-0.000403
	136.495000	6493.732618	-38.219638	21.564063	0.000762	-0.000406
	137.037000	6535.483588	-38.207175	21.566504	0.000766	-0.000410
	137.584000	6576.204068	-38.202912	21.566681	0.000772	-0.000414
	138.125000	6614.870007	-38.194455	21.565976	0.000777	-0.000418
	138.669000	6646.699288	-38.211777	21.563551	0.000782	-0.000420
	139.215000	6691.821897	-38.202986	21.565151	0.000787	-0.000422
	139.756000	6735.400382	-38.189628	21.563858	0.000792	-0.000426
	140.301000	6767.339153	-38.182034	21.564762	0.000797	-0.000428
	140.843000	6813.960808	-38.188877	21.561820	0.000802	-0.000431
	141.387000	6855.259334	-38.181638	21.570086	0.000807	-0.000434
	141.926000	6886.512188	-38.177800	21.563567	0.000812	-0.000437
	142.470000	6926.037950	-38.161894	21.566969	0.000816	-0.000438
	143.012000	6968.903147	-38.157714	21.564955	0.000821	-0.000440
	143.554000	7003.909242	-38.146498	21.564238	0.000826	-0.000444
	144.098000	7046.911304	-38.158890	21.567290	0.000832	-0.000446
	144.642000	7089.840910	-38.152030	21.564960	0.000836	-0.000450
	145.187000	7129.431082	-38.138679	21.564681	0.000842	-0.000453
	145.729000	7167.298403	-38.138019	21.564955	0.000846	-0.000456
	146.279000	7193.841596	-38.156887	21.569296	0.000853	-0.000458
	146.824000	7251.890440	-38.134808	21.568771	0.000857	-0.000460
	147.365000	7282.322127	-38.134538	21.567423	0.000861	-0.000464
	147.909000	7319.160570	-38.126326	21.571336	0.000866	-0.000466
	148.451000	7362.896864	-38.119869	21.570732	0.000872	-0.000468
	148.992000	7394.133624	-38.115138	21.571280	0.000878	-0.000471
	149.537000	7440.009798	-38.112066	21.569597	0.000883	-0.000475
	150.079000	7484.934381	-38.107996	21.569502	0.000888	-0.000477
	150.623000	7534.169315	-38.097034	21.569252	0.000893	-0.000479
	151.189000	7570.587516	-38.097774	21.572226	0.000899	-0.000482
	151.732000	7610.675234	-38.082549	21.573864	0.000904	-0.000486
	152.274000	7653.054184	-38.086136	21.569275	0.000911	-0.000487
	152.818000	7698.015805	-38.088394	21.570412	0.000916	-0.000491
	153.360000	7734.049186	-38.078878	21.571138	0.000922	-0.000495
	153.904000	7768.161668	-38.061613	21.570180	0.000925	-0.000497
	154.447000	7807.990157	-38.070266	21.573552	0.000930	-0.000501
	154.990000	7859.492181	-38.058100	21.571333	0.000934	-0.000503
	155.538000	7903.102898	-38.065938	21.568908	0.000940	-0.000506
	156.079000	7944.916696	-38.051721	21.572610	0.000947	-0.000507
	156.623000	7980.689239	-38.049821	21.577666	0.000951	-0.000512
	157.170000	8023.235654	-38.052265	21.576376	0.000957	-0.000515
	157.712000	8072.517298	-38.036282	21.572275	0.000964	-0.000517
	158.255000	8104.939137	-38.042929	21.578205	0.000968	-0.000521
	158.794000	8145.010766	-38.028634	21.568149	0.000974	-0.000521
	159.337000	8183.839365	-38.019637	21.578624	0.000979	-0.000524
	159.883000	8238.141441	-38.014629	21.572215	0.000984	-0.000526
	160.424000	8274.701351	-38.026889	21.571264	0.000989	-0.000530
	160.965000	8322.520992	-38.015618	21.572864	0.000996	-0.000530
	161.506000	8363.135245	-38.010368	21.575869	0.001001	-0.000533
	162.047000	8413.601966	-38.010079	21.574862	0.001007	-0.000535
	162.591000	8445.315348	-37.993890	21.575585	0.001012	-0.000537
	163.132000	8482.052379	-37.983192	21.577867	0.001019	-0.000543
	163.673000	8530.675489	-37.988013	21.574160	0.001024	-0.000547
	164.213000	8565.272641	-37.990744	21.576232	0.001029	-0.000552
	164.762000	8613.317712	-37.986561	21.573426	0.001033	-0.000556
	165.302000	8652.107680	-37.979473	21.575593	0.001040	-0.000555
	165.845000	8693.279051	-37.960489	21.572400	0.001044	-0.000559
	166.396000	8742.175892	-37.968375	21.572553	0.001050	-0.000564
	166.936000	8792.146701	-37.961941	21.572228	0.001057	-0.000564
	167.483000	8831.669289	-37.959423	21.575109	0.001064	-0.000568
	168.025000	8872.137032	-37.952361	21.572492	0.001069	-0.000573
	168.567000	8914.239072	-37.962025	21.575043	0.001074	-0.000576
	169.117000	8961.833315	-37.951218	21.572924	0.001079	-0.000582
	169.663000	8994.923382	-37.933377	21.575722	0.001087	-0.000584
	170.206000	9044.035993	-37.956579	21.575292	0.001092	-0.000586
	170.750000	9092.958608	-37.941257	21.577535	0.001098	-0.000589
	171.291000	9138.900849	-37.937534	21.574310	0.001103	-0.000592
	171.836000	9171.061867	-37.921043	21.578928	0.001109	-0.000595
	172.384000	9224.405943	-37.928914	21.574886	0.001115	-0.000595
	172.923000	9262.658139	-37.920283	21.576187	0.001121	-0.000596
	173.469000	9317.166352	-37.909466	21.575672	0.001129	-0.000601
	174.019000	9367.285315	-37.911711	21.578152	0.001133	-0.000605
	174.563000	9411.770384	-37.894131	21.575865	0.001139	-0.000610
	175.104000	9440.403582	-37.892975	21.578500	0.001145	-0.000613
	175.647000	9483.650452	-37.894975	21.575672	0.001151	-0.000617
	176.188000	9535.864218	-37.906742	21.580936	0.001156	-0.000620
	176.730000	9581.056146	-37.879330	21.580834	0.001163	-0.000623
	177.273000	9630.978680	-37.873205	21.574458	0.001169	-0.000626
	177.820000	9671.721782	-37.875849	21.579701	0.001175	-0.000630
	178.367000	9709.188239	-37.869801	21.579091	0.001181	-0.000634
	178.908000	9766.155162	-37.866987	21.579184	0.001187	-0.000636
	179.450000	9814.509422	-37.858984	21.578548	0.001192	-0.000638
	179.997000	9848.240348	-37.862298	21.581430	0.001198	-0.000640
	180.540000	9894.193885	-37.857928	21.578311	0.001205	-0.000644
	181.083000	9937.474583	-37.845465	21.578804	0.001212	-0.000648
	181.625000	9988.849482	-37.828163	21.575999	0.001218	-0.000651
	182.164000	10031.579513	-37.839839	21.577466	0.001224	-0.000654
	182.709000	10080.383013	-37.834397	21.583660	0.001230	-0.000657
	183.249000	10130.645307	-37.829328	21.581688	0.001236	-0.000661
	183.787000	10174.787441	-37.810138	21.579446	0.001243	-0.000665
	184.326000	10221.599197	-37.805591	21.577598	0.001250	-0.000668
	184.867000	10257.360527	-37.811092	21.585536	0.001257	-0.000672
	185.410000	10300.485052	-37.803878	21.580794	0.001263	-0.000673
	185.946000	10355.837025	-37.797344	21.579406	0.001270	-0.000675
	186.491000	10394.894327	-37.789078	21.580321	0.001276	-0.000679
	187.034000	10447.552530	-37.789293	21.584655	0.001284	-0.000682
	187.575000	10495.782835	-37.790330	21.579461	0.001292	-0.000686
	188.120000	10543.665350	-37.790250	21.579807	0.001297	-0.000690
	188.664000	10583.720948	-37.772554	21.582615	0.001304	-0.000693
	189.208000	10641.618574	-37.766993	21.582160	0.001310	-0.000697
	189.767000	10696.274980	-37.785709	21.582308	0.001318	-0.000696
	190.308000	10734.129513	-37.766683	21.583011	0.001326	-0.000698
	190.851000	10763.258666	-37.754282	21.580947	0.001332	-0.000701
	191.393000	10815.419350	-37.762922	21.580374	0.001338	-0.000705
	191.933000	10871.161001	-37.746943	21.580110	0.001344	-0.000709
	192.478000	10915.712139	-37.752292	21.582546	0.001349	-0.000716
	193.021000	10969.603737	-37.744080	21.581284	0.001355	-0.000720
	193.562000	11017.360680	-37.747310	21.578815	0.001361	-0.000725
	194.101000	11051.255873	-37.742682	21.582610	0.001369	-0.000728
	194.643000	11103.807836	-37.731431	21.577611	0.001375	-0.000731
	195.186000	11148.909652	-37.719454	21.582406	0.001381	-0.000735
	195.733000	11210.438186	-37.721328	21.577289	0.001389	-0.000738
	196.274000	11248.424768	-37.725483	21.582862	0.001396	-0.000742
	196.815000	11285.041116	-37.717992	21.580694	0.001402	-0.000747
	197.381000	11333.318150	-37.711719	21.577413	0.001410	-0.000751
	197.924000	11390.566924	-37.698071	21.580979	0.001416	-0.000754
	198.471000	11447.253759	-37.698789	21.583375	0.001424	-0.000757
	199.014000	11493.899720	-37.692532	21.581333	0.001431	-0.000762
	199.556000	11538.690794	-37.698361	21.581305	0.001438	-0.000767
	200.097000	11582.359596	-37.672515	21.579503	0.001445	-0.000771
	200.642000	11634.348031	-37.684936	21.578875	0.001451	-0.000772
	201.181000	11687.841957	-37.669845	21.581514	0.001457	-0.000777
	201.728000	11723.790108	-37.670196	21.577893	0.001466	-0.000781
	202.269000	11778.341905	-37.674035	21.579366	0.001472	-0.000785
	202.810000	11830.736107	-37.661302	21.581311	0.001480	-0.000789
	203.356000	11877.878009	-37.649187	21.583356	0.001488	-0.000791
	203.900000	11921.873685	-37.657305	21.581804	0.001495	-0.000793
	204.446000	11980.842128	-37.656323	21.576567	0.001502	-0.000797
	204.986000	12025.526951	-37.642688	21.581924	0.001510	-0.000800
	205.529000	12076.333558	-37.651489	21.578123	0.001519	-0.000805
	206.069000	12122.214727	-37.636386	21.579876	0.001525	-0.000810
	206.613000	12173.071253	-37.633806	21.580451	0.001532	-0.000815
	207.156000	12228.619755	-37.627530	21.582298	0.001539	-0.000819
	207.701000	12269.929718	-37.622960	21.576123	0.001548	-0.000823
	208.248000	12319.358050	-37.622600	21.585929	0.001556	-0.000827
	208.790000	12370.631615	-37.617914	21.578131	0.001563	-0.000831
	209.336000	12422.114502	-37.609074	21.580511	0.001572	-0.000835
	209.882000	12477.663017	-37.607992	21.585059	0.001578	-0.000839
	210.424000	12535.480233	-37.601909	21.581456	0.001587	-0.000843
	210.967000	12575.877255	-37.599842	21.581646	0.001595	-0.000846
	211.513000	12618.890769	-37.596335	21.581354	0.001602	-0.000851
	212.054000	12666.824900	-37.580507	21.583032	0.001610	-0.000855
	212.599000	12725.183138	-37.584078	21.578427	0.001617	-0.000859
	213.146000	12775.556649	-37.580636	21.586977	0.001626	-0.000862
	213.686000	12814.971489	-37.567764	21.587942	0.001635	-0.000867
	214.228000	12874.229809	-37.572141	21.584617	0.001643	-0.000871
	214.769000	12926.374492	-37.571548	21.585757	0.001650	-0.000875
	215.309000	12962.316245	-37.554934	21.582760	0.001659	-0.000879
	215.851000	13015.947102	-37.554203	21.583557	0.001666	-0.000884
	216.394000	13073.719266	-37.559015	21.587581	0.001674	-0.000888
	216.935000	13123.601699	-37.543641	21.586528	0.001683	-0.000892
	217.479000	13168.695551	-37.545508	21.587782	0.001691	-0.000898
	218.022000	13217.789016	-37.535522	21.584274	0.001699	-0.000902
	218.566000	13261.918392	-37.531271	21.586198	0.001707	-0.000907
	219.115000	13320.983520	-37.534688	21.587953	0.001715	-0.000912
	219.659000	13371.915784	-37.528492	21.585726	0.001723	-0.000917
	220.202000	13425.706068	-37.523704	21.590450	0.001732	-0.000922
	220.747000	13470.859508	-37.514120	21.593785	0.001740	-0.000927
	221.292000	13525.981392	-37.508542	21.587942	0.001748	-0.000933
	221.835000	13574.673948	-37.503561	21.589415	0.001756	-0.000938
	222.376000	13624.430816	-37.492389	21.591484	0.001765	-0.000944
	222.916000	13678.058488	-37.501915	21.587802	0.001772	-0.000949
	223.457000	13714.998563	-37.497242	21.587111	0.001781	-0.000953
	223.996000	13776.704366	-37.474310	21.591085	0.001790	-0.000958
	224.536000	13822.989760	-37.481337	21.593254	0.001799	-0.000963
	225.077000	13879.839355	-37.476503	21.586587	0.001808	-0.000967
	225.624000	13922.471322	-37.471306	21.589550	0.001816	-0.000972
	226.163000	13973.828698	-37.472781	21.590579	0.001825	-0.000978
	226.708000	14017.161085	-37.463307	21.595331	0.001832	-0.000985
	227.249000	14077.891156	-37.459922	21.592590	0.001842	-0.000991
	227.790000	14131.476991	-37.455359	21.594313	0.001851	-0.000996
	228.334000	14177.817147	-37.450641	21.586995	0.001858	-0.001000
	228.883000	14225.513054	-37.445147	21.590946	0.001868	-0.001006
	229.426000	14272.700155	-37.453620	21.588666	0.001877	-0.001012
	229.968000	14322.959428	-37.442845	21.593418	0.001886	-0.001018
	230.510000	14379.107028	-37.427857	21.594334	0.001896	-0.001025
	231.051000	14432.121277	-37.429490	21.588336	0.001904	-0.001031
	231.596000	14466.470647	-37.423974	21.594345	0.001914	-0.001037
	232.138000	14528.827003	-37.420418	21.592693	0.001924	-0.001042
	232.682000	14586.315873	-37.420898	21.592508	0.001931	-0.001047
	233.224000	14628.648385	-37.417027	21.590048	0.001942	-0.001054
	233.767000	14686.926236	-37.401612	21.593830	0.001951	-0.001061
	234.310000	14729.197566	-37.411665	21.594154	0.001961	-0.001067
	234.852000	14778.416706	-37.398601	21.593009	0.001972	-0.001074
	235.412000	14846.323280	-37.395438	21.596194	0.001981	-0.001080
	235.955000	14891.169252	-37.392662	21.595120	0.001991	-0.001086
	236.499000	14944.312343	-37.376599	21.594725	0.002002	-0.001092
	237.047000	14994.615129	-37.378760	21.595806	0.002013	-0.001098
	237.586000	15041.262870	-37.374506	21.593980	0.002024	-0.001105
	238.131000	15096.230274	-37.359689	21.596350	0.002034	-0.001113
	238.674000	15141.015073	-37.358614	21.596849	0.002043	-0.001119
	239.218000	15190.181101	-37.354511	21.600387	0.002054	-0.001125
	239.760000	15234.907939	-37.360089	21.602428	0.002064	-0.001132
	240.313000	15278.985889	-37.340532	21.596822	0.002075	-0.001139
	240.853000	15332.826202	-37.349465	21.596562	0.002086	-0.001147
	241.400000	15384.164339	-37.340831	21.601406	0.002098	-0.001156
	241.945000	15435.924339	-37.339031	21.602050	0.002109	-0.001163
	242.488000	15490.273470	-37.333006	21.598805	0.002120	-0.001170
	243.032000	15540.309002	-37.331373	21.603206	0.002130	-0.001179
	243.573000	15583.430535	-37.313446	21.602613	0.002142	-0.001185
	244.115000	15637.253156	-37.327754	21.601539	0.002152	-0.001194
	244.657000	15678.347511	-37.330233	21.602113	0.002162	-0.001201
	245.206000	15729.869226	-37.303872	21.601303	0.002175	-0.001208
	245.744000	15778.615039	-37.304174	21.604671	0.002187	-0.001217
	246.287000	15829.768036	-37.302841	21.604583	0.002198	-0.001225
	246.827000	15879.220712	-37.298500	21.602338	0.002209	-0.001233
	247.367000	15928.032550	-37.297444	21.602118	0.002221	-0.001244
	247.907000	15977.261423	-37.287615	21.601842	0.002233	-0.001254
	248.453000	16022.956006	-37.286318	21.604710	0.002246	-0.001262
	248.996000	16081.679967	-37.282701	21.603956	0.002257	-0.001273
	249.538000	16125.049493	-37.279336	21.603188	0.002270	-0.001281
	250.078000	16174.313800	-37.255654	21.603370	0.002282	-0.001290
	250.624000	16217.027998	-37.267601	21.607444	0.002295	-0.001300
	251.173000	16261.012611	-37.259734	21.609230	0.002306	-0.001309
	251.716000	16311.819455	-37.258069	21.606547	0.002321	-0.001320
	252.259000	16355.668821	-37.248189	21.610115	0.002333	-0.001330
	252.803000	16410.831141	-37.251496	21.606641	0.002346	-0.001340
	253.342000	16451.933586	-37.257064	21.609842	0.002358	-0.001351
	253.886000	16476.588291	-37.237713	21.609571	0.002371	-0.001362
	254.431000	16548.695902	-37.227405	21.612485	0.002385	-0.001372
	254.973000	16599.074463	-37.231572	21.610489	0.002399	-0.001383
	255.516000	16640.299289	-37.221477	21.610639	0.002414	-0.001393
	256.059000	16680.434043	-37.218057	21.610123	0.002427	-0.001405
	256.600000	16736.071384	-37.204447	21.611706	0.002442	-0.001415
	257.147000	16782.786850	-37.218491	21.613334	0.002457	-0.001427
	257.690000	16831.373323	-37.202837	21.611883	0.002471	-0.001440
	258.230000	16880.714961	-37.205030	21.611347	0.002485	-0.001453
	258.774000	16931.998452	-37.199575	21.612469	0.002501	-0.001465
	259.320000	16968.779264	-37.197723	21.613738	0.002515	-0.001476
	259.860000	17021.255887	-37.186230	21.611671	0.002531	-0.001487
	260.404000	17055.101387	-37.181767	21.613245	0.002547	-0.001503
	260.958000	17244.243336	-37.171455	21.616926	0.002626	-0.001554
	261.501000	17690.595207	-37.148414	21.614234	0.002700	-0.001607
	262.046000	17977.659134	-37.116794	21.616514	0.002775	-0.001666
	262.590000	18225.496465	-37.094525	21.619398	0.002852	-0.001730
	263.129000	18444.423458	-37.075841	21.615910	0.002935	-0.001799
	263.671000	18684.904128	-37.052767	21.615422	0.003023	-0.001877
	264.213000	18895.877070	-37.036463	21.618078	0.003118	-0.001961
	264.753000	19089.618126	-37.012004	21.617100	0.003220	-0.002051
	265.296000	19273.326321	-36.986809	21.615773	0.003326	-0.002149
	265.837000	19463.409196	-36.971435	21.620147	0.003439	-0.002253
	266.381000	19622.665557	-36.942838	21.620596	0.003561	-0.002362
	266.926000	19772.987162	-36.921114	21.623323	0.003685	-0.002477
	267.469000	19904.618022	-36.897100	21.621425	0.003822	-0.002601
	268.012000	20034.844845	-36.884161	21.622369	0.003965	-0.002731
	268.573000	20147.195651	-36.867451	21.626095	0.004110	-0.002861
	269.111000	20237.017058	-36.835035	21.625001	0.004258	-0.002997
	269.658000	20326.817542	-36.814579	21.630714	0.004415	-0.003138
	270.199000	20384.683643	-36.790140	21.633881	0.004574	-0.003278
	270.740000	20444.254913	-36.773733	21.634256	0.004743	-0.003425
	271.283000	20487.834028	-36.747539	21.635245	0.004916	-0.003579
	271.824000	20524.056301	-36.720536	21.643724	0.005102	-0.003742
	272.371000	20571.248635	-36.706338	21.639163	0.005293	-0.003911
	272.912000	20586.166816	-36.670850	21.646069	0.005503	-0.004091
	273.456000	20626.532051	-36.635968	21.646912	0.005725	-0.004283
	274.001000	20642.967009	-36.630103	21.649093	0.005965	-0.004487
	274.552000	20675.313624	-36.610247	21.648180	0.006214	-0.004700
	275.094000	20685.217751	-36.572798	21.654242	0.006484	-0.004927
	275.641000	20712.977006	-36.561672	21.662405	0.006768	-0.005163
	276.182000	20713.899631	-36.540195	21.664429	0.007068	-0.005415
	276.722000	20729.118918	-36.511718	21.670384	0.007380	-0.005676
	277.265000	20743.090325	-36.493104	21.678715	0.007709	-0.005944
	277.806000	20757.994018	-36.459581	21.686028	0.008044	-0.006223
	278.350000	20757.802409	-36.436678	21.691727	0.008389	-0.006515
	278.903000	20773.520847	-36.425423	21.697547	0.008750	-0.006801
	279.446000	20782.809895	-36.402736	21.706228	0.009111	-0.007096
	279.987000	20796.162999	-36.382751	21.714008	0.009478	-0.007391
	280.528000	20813.831350	-36.346815	21.723887	0.009848	-0.007686
	281.068000	20824.461664	-36.336401	21.734232	0.010222	-0.007984
	281.614000	20837.666637	-36.309221	21.741994	0.010595	-0.008286
	282.156000	20850.985930	-36.285848	21.752480	0.010969	-0.008586
	282.696000	20876.771127	-36.265599	21.763073	0.011346	-0.008886
	283.242000	20882.860775	-36.254028	21.771652	0.011721	-0.009182
	283.787000	20895.932104	-36.217642	21.785137	0.011859	-0.009473
	284.330000	20923.243741	-36.185638	21.793161	0.012171	-0.009770
	284.874000	20939.309981	-36.171977	21.804847	0.012506	-0.010066
	285.418000	20958.187569	-36.142338	21.813744	0.012840	-0.010356
	285.961000	20971.390933	-36.134673	21.823018	0.013182	-0.010649
	286.505000	20996.528850	-36.108643	21.840682	0.013519	-0.010936
	287.044000	21012.839834	-36.089885	21.848921	0.013854	-0.011221
	287.585000	21035.435302	-36.075883	21.858997	0.014185	-0.011507
	288.128000	21047.290957	-36.034608	21.868866	0.014530	-0.011799
	288.687000	21066.949479	-36.004205	21.884292	0.014863	-0.012083
	289.231000	21094.053414	-35.996708	21.894167	0.015191	-0.012364
	289.777000	21104.999327	-35.972160	21.900673	0.015514	-0.012639
	290.320000	21131.758687	-35.949573	21.916031	0.015836	-0.012918
	290.860000	21142.968668	-35.918200	21.925484	0.016156	-0.013193
	291.405000	21163.195583	-35.904041	21.937855	0.016469	-0.013463
	291.946000	21172.755144	-35.877309	21.948739	0.016776	-0.013736
	292.492000	21196.632309	-35.854174	21.958493	0.017074	-0.014003
	293.033000	21218.013714	-35.816677	21.969624	0.017373	-0.014272
	293.578000	21244.294860	-35.805376	21.978572	0.017666	-0.014540
	294.118000	21248.912819	-35.781578	21.990922	0.017955	-0.014805
	294.661000	21272.202276	-35.765844	22.000687	0.018239	-0.015071
	295.210000	21280.926161	-35.731251	22.009402	0.018522	-0.015333
	295.754000	21304.804940	-35.721577	22.018737	0.018799	-0.015592
	296.297000	21321.489493	-35.690688	22.028696	0.019060	-0.015850
	296.840000	21341.639125	-35.676808	22.037882	0.019323	-0.016103
	297.380000	21355.911649	-35.653680	22.049108	0.019592	-0.016360
	297.923000	21376.542723	-35.626658	22.059761	0.019861	-0.016616
	298.468000	21392.082448	-35.601440	22.072855	0.020127	-0.016870
	299.008000	21409.325732	-35.587412	22.087513	0.020391	-0.017121
	299.550000	21420.923767	-35.555628	22.094992	0.020660	-0.017377
	300.105000	21443.271283	-35.540386	22.107305	0.020921	-0.017629
	300.648000	21450.195004	-35.520237	22.116880	0.021181	-0.017882
	301.191000	21471.286589	-35.498925	22.121392	0.021436	-0.018132
	301.735000	21487.125809	-35.469130	22.136272	0.021697	-0.018381
	302.277000	21504.283755	-35.437626	22.146131	0.021957	-0.018629
	302.820000	21520.374161	-35.436122	22.153885	0.022218	-0.018878
	303.368000	21542.336850	-35.401375	22.161472	0.022482	-0.019124
	303.906000	21544.742440	-35.369616	22.181237	0.022740	-0.019370
	304.450000	21557.102088	-35.348256	22.185129	0.023001	-0.019619
	304.991000	21583.561977	-35.344575	22.192156	0.023259	-0.019864
	305.533000	21593.179510	-35.303864	22.202986	0.023515	-0.020107
	306.074000	21599.567049	-35.296592	22.216386	0.023774	-0.020356
	306.624000	21620.959739	-35.276616	22.221223	0.024033	-0.020600
	307.166000	21633.259813	-35.236800	22.238120	0.024289	-0.020845
	307.711000	21647.086326	-35.221594	22.247338	0.024542	-0.021089
	308.255000	21669.945883	-35.200082	22.263258	0.024796	-0.021333
	308.798000	21681.247654	-35.168285	22.266000	0.025050	-0.021575
	309.343000	21690.377308	-35.153075	22.274257	0.025304	-0.021817
	309.882000	21711.076019	-35.134601	22.286760	0.025552	-0.022058
	310.424000	21708.971530	-35.095754	22.295117	0.025801	-0.022301
	310.963000	21724.166689	-35.080506	22.303109	0.026049	-0.022541
	311.511000	21744.409724	-35.066043	22.312737	0.026298	-0.022786
	312.050000	21752.685991	-35.039762	22.326227	0.026547	-0.023029
	312.597000	21763.556237	-35.007623	22.334084	0.026797	-0.023273
	313.143000	21781.495123	-34.995937	22.348890	0.027045	-0.023515
	313.684000	21792.640710	-34.969166	22.356702	0.027290	-0.023753
	314.229000	21801.536891	-34.952228	22.364721	0.027540	-0.023995
	314.774000	21816.513068	-34.924771	22.372554	0.027792	-0.024239
	315.321000	21833.334499	-34.903115	22.384803	0.028039	-0.024479
	315.867000	21833.547042	-34.886301	22.392028	0.028287	-0.024721
	316.410000	21856.390504	-34.851863	22.401566	0.028536	-0.024962
	316.953000	21864.251347	-34.832322	22.408766	0.028784	-0.025205
	317.496000	21880.348205	-34.807587	22.415153	0.029033	-0.025447
	318.039000	21869.928803	-34.794339	22.428453	0.029274	-0.025687
	318.581000	21896.430570	-34.761785	22.434503	0.029519	-0.025928
	319.123000	21900.191924	-34.748394	22.445952	0.029763	-0.026168
	319.667000	21909.733784	-34.719872	22.455818	0.030006	-0.026409
	320.207000	21923.805050	-34.688838	22.465859	0.030247	-0.026647
	320.749000	21934.738097	-34.681737	22.475367	0.030491	-0.026888
	321.291000	21934.090810	-34.654899	22.482656	0.030728	-0.027125
	321.832000	21942.842077	-34.634940	22.492562	0.031012	-0.027418
	322.381000	22251.083233	-34.591958	22.500608	0.031473	-0.027864
	322.928000	22353.907072	-34.547208	22.511643	0.031936	-0.028343
	323.468000	22366.762669	-34.501828	22.528264	0.032316	-0.028821
	324.012000	22376.207926	-34.440355	22.537016	0.032675	-0.029297
	324.553000	22393.641238	-34.410313	22.550878	0.033089	-0.029774
	325.095000	22405.042854	-34.356621	22.567139	0.033511	-0.030256
	325.636000	22417.033791	-34.308757	22.581704	0.033930	-0.030739
	326.181000	22419.708283	-34.268790	22.603215	0.034286	-0.031241
	326.753000	22436.161004	-34.220118	22.618337	0.034713	-0.031725
	327.295000	22450.892451	-34.179072	22.644142	0.035133	-0.032208
	327.837000	22455.201269	-34.135659	22.656060	0.035561	-0.032693
	328.380000	22459.247626	-34.084662	22.676622	0.035992	-0.033178
	328.922000	22466.884664	-34.042460	22.699083	0.036427	-0.033671
	329.468000	22476.444245	-33.992603	22.717798	0.036888	-0.034172
	330.023000	22489.668575	-33.949267	22.742280	0.037335	-0.034656
	330.563000	22489.736201	-33.904366	22.761391	0.037801	-0.035155
	331.109000	22492.782644	-33.867951	22.778102	0.038268	-0.035656
	331.660000	22493.988662	-33.803412	22.805983	0.038705	-0.036152
	332.204000	22502.173159	-33.762750	22.823459	0.039151	-0.036646
	332.747000	22497.047986	-33.736839	22.849498	0.039592	-0.036677
	333.290000	22493.988662	-33.685005	22.866072	0.040040	-0.036677
	333.829000	22498.328070	-33.632485	22.886228	0.040490	-0.036677
	334.374000	22508.563924	-33.589693	22.907191	0.040946	-0.036677
	334.920000	22510.531552	-33.535321	22.928828	0.041395	-0.036677
	335.460000	22499.606547	-33.486695	22.948551	0.041832	-0.036677
	336.004000	22504.371041	-33.446032	22.972023	0.042274	-0.036677
	336.548000	22501.817310	-33.397730	22.992707	0.042694	-0.036677
	337.086000	22492.143408	-33.356658	23.009991	0.043025	-0.036677
	337.629000	22492.934000	-33.312682	23.034475	0.043357	-0.036677
	338.185000	22488.791033	-33.268940	23.052312	0.043679	-0.036677
	338.728000	22481.258655	-33.223518	23.074934	0.043999	-0.036677
	339.273000	22473.832550	-33.184327	23.096251	0.044329	-0.036677
	339.812000	22475.045006	-33.125971	23.116164	0.044683	-0.036677
	340.353000	22460.733813	-33.082983	23.137928	0.045028	-0.036677
	340.897000	22463.197373	-33.045921	23.158022	0.045387	-0.036677
	341.441000	22445.797872	-32.996457	23.184412	0.045756	-0.036677
	341.981000	22442.537277	-32.958290	23.203715	0.046129	-0.036677
	342.524000	22423.023624	-32.912497	23.225944	0.046457	-0.036677
	343.069000	22425.509728	-32.856077	23.246739	0.032360	-0.036677
	343.609000	22403.656499	-32.808011	23.268090	0.029735	-0.036677
	344.155000	22404.060651	-32.771312	23.290779	0.028687	-0.036677
	344.702000	22386.463101	-32.717591	23.313328	0.028057	-0.036677
	345.247000	22378.141742	-32.678883	23.336630	0.027588	-0.036677
	345.801000	22367.184533	-32.625026	23.356368	0.027206	-0.036677
	346.344000	22349.155460	-32.585703	23.385066	0.026878	-0.036677
	346.886000	22347.608086	-32.542892	23.403969	0.026628	-0.036677
	347.444000	22333.583505	-32.487644	23.435405	0.026406	-0.036677
	347.983000	22313.144009	-32.447957	23.456749	0.026197	-0.036677
	348.527000	22303.204430	-32.424282	23.479090	0.025993	-0.036677
	349.068000	22291.657901	-32.345571	23.500733	0.025804	-0.036677
	349.607000	22278.051966	-32.313645	23.521835	0.025636	-0.036677
	350.148000	22263.983912	-32.273658	23.550344	0.025485	-0.036677
	350.691000	22247.738910	-32.226426	23.576482	0.025349	-0.036677
	351.235000	22236.862212	-32.175374	23.599716	0.025218	-0.036677
	351.785000	22219.362889	-32.134599	23.622632	0.025087	-0.036677
	352.327000	22203.881108	-32.086903	23.649252	0.024953	-0.036677
	352.874000	22184.678225	-32.051885	23.672115	0.024795	-0.036677
	353.425000	22181.200259	-31.996837	23.691963	0.024632	-0.036677
	353.967000	22158.566105	-31.954210	23.719291	0.024487	-0.036677
	354.511000	22144.184071	-31.900997	23.748277	0.024347	-0.036677
	355.060000	22129.676446	-31.869223	23.767872	0.024220	-0.036677
	355.602000	22109.884244	-31.817633	23.793638	0.024098	-0.036677
	356.148000	22098.817550	-31.762811	23.820209	0.023987	-0.036677
	356.692000	22083.805941	-31.729497	23.845736	0.023877	-0.036677
	357.234000	22058.957809	-31.676993	23.867306	0.023772	-0.036677
	357.777000	22049.631708	-31.634340	23.900386	0.023663	-0.036677
	358.319000	22043.358489	-31.591065	23.919458	0.023550	-0.036677
	358.863000	22008.564346	-31.535489	23.952749	0.023434	-0.036677
	359.405000	22001.651888	-31.512902	23.975574	0.023319	-0.036677
	359.949000	21976.391558	-31.457277	24.004081	0.023223	-0.036677
	360.494000	21961.354188	-31.415191	24.035135	0.023123	-0.036677
	361.042000	21940.818096	-31.353561	24.060064	0.023021	-0.036677
	361.585000	21923.471746	-31.316257	24.084052	0.022923	-0.036677
	362.129000	21896.110147	-31.263395	24.107570	0.022823	-0.036677
	362.673000	21892.732014	-31.218978	24.140939	0.022730	-0.036677
	363.218000	21861.948806	-31.188485	24.165913	0.022630	-0.036677
	363.763000	21855.868810	-31.125640	24.196843	0.022480	-0.036677
	364.309000	21826.740860	-31.088749	24.224148	0.022289	-0.036677
	364.846000	21827.814841	-31.044160	24.250802	0.022117	-0.036677
	365.391000	21797.252233	-30.999295	24.277489	0.021948	-0.014891
	365.933000	21783.618937	-30.958332	24.304045	0.021794	0.045476
	366.472000	21775.284705	-30.905323	24.335455	0.021615	0.045476
	367.015000	21767.697590	-30.859218	24.358938	0.021400	0.045476
	367.560000	21737.653460	-30.839113	24.385219	0.021232	0.045476
	368.102000	21724.013721	-30.760722	24.415259	0.021348	0.045476
	368.641000	21702.416536	-30.733710	24.440572	0.021265	0.045476
	369.196000	21693.629847	-30.683492	24.470558	0.021156	0.045476
	369.739000	21685.087906	-30.635828	24.501223	0.021049	0.045476
	370.283000	21662.444110	-30.598164	24.529174	0.020922	0.045476
	370.821000	21645.770819	-30.535532	24.561992	0.020780	0.045476
	371.363000	21627.278039	-30.499407	24.587525	0.020621	0.045476
	371.906000	21615.668728	-30.458158	24.618894	0.020486	0.045476
	372.450000	21609.865682	-30.419801	24.644747	0.020367	0.045476
	372.991000	21583.647317	-30.358193	24.675764	0.020227	0.045476
	373.537000	21578.277407	-30.322219	24.704324	0.020078	0.045476
	374.080000	21559.842594	-30.272314	24.732170	0.019939	0.045476
	374.621000	21543.272357	-30.231377	24.763263	0.019824	0.045476
	375.165000	21527.721357	-30.198343	24.788995	0.019720	0.045476
	375.706000	21524.596022	-30.135010	24.817703	0.019626	0.045476
	376.247000	21514.376286	-30.086447	24.844514	0.019510	0.045476
	376.792000	21473.866079	-30.045475	24.874898	0.019393	0.045476
	377.340000	21477.390734	-30.003769	24.903682	0.019277	0.045476
	377.881000	21457.619487	-29.954125	24.936321	0.019175	0.045476
	378.427000	21453.951525	-29.912387	24.960972	0.019080	0.045476
	378.965000	21440.606456	-29.868774	24.994552	0.019006	0.045476
	379.510000	21418.123688	-29.823957	25.019962	0.018917	0.045476
	380.053000	21421.284446	-29.767064	25.055098	0.018808	0.045476
	380.598000	21389.103639	-29.734909	25.080981	0.018705	0.045476
	381.142000	21390.325755	-29.697357	25.112617	0.018606	0.045476
	381.683000	21372.955270	-29.646450	25.140437	0.018512	0.045476
	382.223000	21366.564515	-29.591338	25.166422	0.018427	0.045476
	382.764000	21353.324110	-29.541771	25.197154	0.018349	0.045476
	383.312000	21333.226003	-29.508734	25.229551	0.018270	0.045476
	383.854000	21319.570174	-29.459876	25.260265	0.018187	0.045476
	384.399000	21309.654764	-29.414556	25.289797	0.018095	0.045476
	384.942000	21293.479024	-29.372944	25.325157	0.018001	0.045476
	385.485000	21284.278531	-29.318208	25.349068	0.017926	0.045476
	386.031000	21277.522268	-29.270741	25.382346	0.017853	0.045476
	386.576000	21259.393397	-29.237092	25.408672	0.017785	0.045476
	387.118000	21240.188935	-29.181809	25.443576	0.017713	0.045476
	387.661000	21247.036973	-29.130252	25.470466	0.017632	0.045476
	388.204000	21229.870985	-29.085477	25.503170	0.017567	0.045476
	388.747000	21218.994306	-29.047667	25.528463	0.017490	0.045476
	389.291000	21204.995516	-29.010205	25.560860	0.017417	0.045476
	389.833000	21192.930534	-28.960848	25.588445	0.017353	0.045476
	390.378000	21178.943014	-28.910782	25.620037	0.017305	0.045476
	390.920000	21174.291243	-28.860509	25.653217	0.017256	0.045476
	391.462000	21157.485932	-28.828448	25.684671	0.017213	0.045476
	392.005000	21142.736805	-28.780836	25.710880	0.017166	0.045476
	392.549000	21146.309764	-28.721125	25.745926	0.017118	0.045476
	393.089000	21132.790805	-28.691885	25.771872	0.017064	0.045476
	393.634000	21101.155860	-28.647483	25.796829	0.017009	0.045476
	394.175000	21097.149765	-28.591530	25.831874	0.016945	0.045476
	394.713000	21088.644864	-28.549541	25.866598	0.016885	0.045476
	395.259000	21078.859882	-28.512729	25.892427	0.016838	0.045476
	395.804000	21061.734152	-28.455524	25.928931	0.016785	0.045476
	396.348000	21049.868833	-28.406395	25.961159	0.016733	0.045476
	396.890000	21042.534526	-28.364151	25.991678	0.016677	0.045476
	397.432000	21035.235640	-28.327836	26.026154	0.016639	0.045476
	397.978000	21019.333637	-28.275165	26.054833	0.016600	0.045476
	398.521000	21015.102119	-28.224541	26.086888	0.016565	0.045476
	399.064000	20997.362917	-28.193936	26.121873	0.016526	0.045476
	399.603000	20980.251679	-28.127923	26.151688	0.016485	0.045476
	400.146000	20976.401771	-28.114246	26.183227	0.016448	0.045476
	400.690000	20953.102665	-28.050748	26.218057	0.016410	0.045476
	401.234000	20949.449197	-28.013521	26.250376	0.016371	0.045476
	401.779000	20933.320161	-27.968663	26.282694	0.016337	0.045476
	402.323000	20913.019187	-27.914027	26.308591	0.016304	0.045476
	402.862000	20904.614120	-27.864979	26.341220	0.016270	0.045476
	403.407000	20892.513722	-27.831185	26.371182	0.016245	0.045476
	403.949000	20877.114092	-27.763507	26.408749	0.016223	0.045476
	404.492000	20862.440651	-27.741541	26.439431	0.016196	0.045476
	405.033000	20859.370064	-27.685469	26.470873	0.016170	0.045476
	405.574000	20851.602622	-27.647769	26.502059	0.016146	0.045476
	406.121000	20830.416058	-27.594644	26.533173	0.016123	0.045476
	406.668000	20821.447434	-27.547470	26.565961	0.016104	0.045476
	407.204000	20808.847886	-27.509126	26.595946	0.016078	0.045476
	407.743000	20790.962164	-27.469406	26.628159	0.016056	0.045476
	408.282000	20783.065911	-27.421520	26.661770	0.016027	0.045476
	408.826000	20763.619938	-27.378874	26.702226	0.016004	0.045476
	409.374000	20743.906679	-27.332453	26.731064	0.016034	0.045476
	409.917000	20734.806023	-27.282052	26.765519	0.016030	0.045476
	410.466000	20716.644964	-27.230099	26.796711	0.016042	0.045476
	411.009000	20694.363494	-27.186886	26.829532	0.016036	0.045476
	411.555000	20683.631740	-27.133397	26.865107	0.016031	0.045476
	412.101000	20663.346875	-27.095948	26.901362	0.016018	0.045476
	412.641000	20662.005606	-27.052010	26.931670	0.016011	0.045476
	413.182000	20636.527957	-27.011676	26.966478	0.016005	0.045476
	413.725000	20619.582577	-26.958953	27.001720	0.015999	0.045476
	414.270000	20600.086696	-26.922580	27.034186	0.015985	0.045476
	414.813000	20588.184352	-26.876755	27.070488	0.015984	0.045476
	415.363000	20575.539724	-26.838108	27.102063	0.015967	0.045476
	415.905000	20545.714634	-26.788487	27.141553	0.015952	0.045476
	416.451000	20526.809685	-26.741351	27.174419	0.015918	0.045476
	416.995000	20513.058874	-26.679866	27.213527	0.015906	0.045476
	417.536000	20495.372821	-26.656174	27.242903	0.015884	0.045476
	418.083000	20472.226700	-26.603525	27.280731	0.015877	0.045476
	418.625000	20454.009291	-26.554136	27.312711	0.015863	0.045476
	419.166000	20432.922572	-26.511757	27.346929	0.015851	0.045476
	419.706000	20401.292493	-26.456960	27.386153	0.015840	0.045476
	420.251000	20379.276710	-26.420818	27.420099	0.015829	0.045476
	420.793000	20366.194121	-26.373216	27.452044	0.015825	0.045476
	421.334000	20337.903527	-26.332940	27.488281	0.015808	0.045476
	421.875000	20320.207818	-26.284735	27.524597	0.015790	0.045476
	422.422000	20297.973054	-26.228924	27.566021	0.015761	0.045476
	422.963000	20260.224358	-26.190255	27.595973	0.015743	0.045476
	423.508000	20238.868748	-26.148752	27.635558	0.015725	0.045476
	424.051000	20206.480290	-26.095704	27.670678	0.015704	0.045476
	424.592000	20193.663382	-26.067004	27.709970	0.015676	0.045476
	425.138000	20165.960506	-26.006215	27.744808	0.015661	0.045476
	425.686000	20132.641379	-25.971535	27.785426	0.015648	0.045476
	426.231000	20112.995766	-25.917727	27.824074	0.015636	0.045476
	426.774000	20079.885962	-25.868927	27.860954	0.015626	0.045476
	427.317000	20048.035308	-25.843554	27.896703	0.015619	0.045476
	427.858000	20019.461339	-25.778275	27.938587	0.015603	0.045476
	428.402000	19989.681358	-25.745657	27.976438	0.015601	0.045476
	428.940000	19963.707808	-25.702701	28.013556	0.015598	0.045476
	429.483000	19928.110309	-25.644965	28.050415	0.015593	0.045476
	430.027000	19887.456897	-25.604821	28.086783	0.015583	0.045476
	430.568000	19856.408116	-25.559917	28.129895	0.015573	0.045476
	431.110000	19822.130957	-25.504827	28.164711	0.015559	0.045476
	431.651000	19782.493566	-25.473210	28.210999	0.015554	0.045476
	432.196000	19748.338784	-25.426790	28.251701	0.015550	0.045476
	432.739000	19713.586633	-25.372959	28.291256	0.015535	0.045476
	433.282000	19678.274147	-25.334361	28.333149	0.015518	0.045476
	433.829000	19639.379048	-25.293656	28.368786	0.015514	0.045476
	434.371000	19597.096171	-25.235433	28.409382	0.015503	0.045476
	434.916000	19561.662929	-25.197508	28.455804	0.015493	0.045476
	435.461000	19519.953275	-25.160970	28.493478	0.015497	0.045476
	436.006000	19482.916315	-25.099604	28.534107	0.015490	0.045476
	436.548000	19433.400599	-25.065675	28.575995	0.015474	0.045476
	437.090000	19393.872722	-25.018932	28.625658	0.015458	0.045476
	437.628000	19341.275162	-24.979332	28.661667	0.015437	0.045476
	438.170000	19297.357989	-24.924594	28.706399	0.015415	0.045476
	438.730000	19250.479731	-24.880447	28.749224	0.015397	0.045476
	439.275000	19214.154477	-24.835421	28.789910	0.015381	0.045476
	439.816000	19162.373282	-24.774940	28.836661	0.015374	0.045476
	440.359000	19121.528310	-24.741958	28.877450	0.015361	0.045476
	440.902000	19071.102879	-24.693766	28.920793	0.015342	0.045476
	441.445000	19026.522338	-24.645945	28.966550	0.015337	0.045476
	441.990000	18975.646068	-24.609948	29.011181	0.015318	0.045476
	442.531000	18923.220827	-24.561673	29.047831	0.015309	0.045476
	443.087000	18861.052505	-24.518669	29.094950	0.015295	0.045476
	443.627000	18813.702501	-24.458395	29.141430	0.015273	0.045476
	444.168000	18761.116257	-24.424366	29.187386	0.015260	0.045476
	444.711000	18706.923076	-24.384112	29.232299	0.015255	0.045476
	445.252000	18649.459664	-24.326820	29.276953	0.015240	0.045476
	445.790000	18590.444061	-24.289770	29.324583	0.015238	0.045476
	446.334000	18540.197396	-24.241820	29.365518	0.015219	0.045476
	446.875000	18478.259363	-24.192382	29.418172	0.015200	0.045476
	447.415000	18430.815994	-24.152109	29.458536	0.015186	0.045476
	447.958000	18367.103574	-24.106413	29.502836	0.015180	0.045476
	448.503000	18297.309586	-24.056318	29.553056	0.015173	0.045476
	449.048000	18247.705395	-24.031886	29.601476	0.015158	0.045476
	449.592000	18179.619799	-23.969721	29.642552	0.015143	0.045476
	450.133000	18110.572944	-23.931535	29.689861	0.015131	0.045476
	450.672000	18049.605873	-23.876828	29.737011	0.015111	0.045476
	451.215000	17971.263581	-23.841209	29.787478	0.015101	0.045476
	451.756000	17919.310192	-23.796208	29.829101	0.015083	0.045476
	452.300000	17853.235715	-23.756161	29.876417	0.015075	0.045476
	452.843000	17772.320411	-23.712004	29.929972	0.015071	0.045476
	453.383000	17713.675218	-23.648645	29.975178	0.015057	0.045476
	453.924000	17637.839980	-23.615080	30.021516	0.015045	0.045476
	454.481000	17563.144741	-23.569368	30.074765	0.015025	0.045476
	455.021000	17478.450430	-23.515077	30.120875	0.015022	0.045476
	455.562000	17402.958179	-23.478169	30.165476	0.015017	0.045476
	456.105000	17330.367440	-23.435548	30.215625	0.015004	0.045476
	456.645000	17250.640490	-23.386213	30.263323	0.014995	0.045476
	457.192000	17163.307167	-23.345609	30.311012	0.014997	0.045476
	457.744000	17077.748245	-23.290139	30.359008	0.015006	0.045476
	458.285000	16986.442685	-23.237957	30.410425	0.015009	0.045476
	458.830000	16902.105893	-23.190142	30.456272	0.015008	0.045476
	459.376000	16808.267577	-23.151489	30.505011	0.014996	0.045476
	459.920000	16711.155825	-23.109670	30.554712	0.014982	0.045476
	460.463000	16612.392065	-23.060864	30.597852	0.014961	0.045476
	461.007000	16505.635504	-23.026014	30.650895	0.014951	0.045476
	461.551000	16399.083446	-22.973851	30.695247	0.014950	0.045476
	462.095000	16294.157660	-22.912588	30.750599	0.014936	0.045476
	462.638000	16170.022737	-22.889055	30.794678	0.014922	0.045476
	463.184000	16045.652749	-22.825959	30.847174	0.014921	0.045476
	463.729000	12641.468189	-22.789808	30.928004	0.014927	0.045476
	464.269000	14.874783	-22.743897	31.081367	0.014926	0.045476
	464.814000	12.292121	-22.697859	31.240573	0.014924	0.045476
	465.357000	10.862317	-22.663267	31.396804	0.014921	0.045476
	465.903000	10.458172	-22.600738	31.559941	0.014914	0.045476
	466.447000	8.179826	-22.566371	31.721168	0.014916	0.045476
	466.992000	8.094489	-22.519674	31.882213	0.014903	0.045476
	467.535000	8.046184	-22.503431	32.042042	0.014891	0.045476
	468.079000	8.856084	-22.500806	32.195168	0.014886	0.045476
	468.621000	10.276227	-22.486837	32.348337	0.014865	0.045476
	469.165000	9.324635	-22.486093	32.397921	0.014843	0.045476
	469.706000	3.439577	-22.501119	32.430847	0.014829	0.045476
	470.255000	8.537277	-22.489445	32.458227	0.014817	0.045476
